,wavelength,TranDep,sigma_p,sigma_m
0,0.60044,0.014123300000000002,0.0010939,-0.0010939
1,0.60085,0.015497,0.001291,-0.001291
2,0.60126,0.0128239,0.0012779,-0.0012779
3,0.60167,0.015329299999999999,0.0010184,-0.0010184
4,0.60208,0.0145843,0.0012362,-0.0012362
5,0.60249,0.0164112,0.0012822,-0.0012822
6,0.6029,0.0162757,0.0011763,-0.0011763
7,0.60331,0.014985100000000001,0.0011512,-0.0011512
8,0.60372,0.0152294,0.0012917,-0.0012917
9,0.60413,0.0137516,0.001157,-0.001157
10,0.60454,0.0138207,0.0010566,-0.0010566
11,0.60495,0.014816800000000001,0.0011713,-0.0011713
12,0.60536,0.0151502,0.0013469,-0.0013469
13,0.60577,0.0153357,0.0009977999999999999,-0.0009977999999999999
14,0.60618,0.0156471,0.0012927,-0.0012927
15,0.60659,0.0169423,0.0012792,-0.0012792
16,0.60701,0.0157467,0.0015506,-0.0015506
17,0.60742,0.0137652,0.0011082,-0.0011082
18,0.60783,0.0162034,0.0011166,-0.0011166
19,0.60824,0.014945900000000002,0.0008078,-0.0008078
20,0.60865,0.0156186,0.0008667,-0.0008667
21,0.60906,0.0141827,0.0011766,-0.0011766
22,0.60948,0.013418399999999999,0.0012864,-0.0012864
23,0.60989,0.0151996,0.0011462,-0.0011462
24,0.6103,0.015679099999999998,0.0009080000000000001,-0.0009080000000000001
25,0.61071,0.015373900000000001,0.0011609,-0.0011609
26,0.61113,0.0163948,0.0011136,-0.0011136
27,0.61154,0.012547200000000001,0.0009601999999999999,-0.0009601999999999999
28,0.61195,0.015721000000000002,0.0008018000000000001,-0.0008018000000000001
29,0.61236,0.0152511,0.0012156,-0.0012156
30,0.61278,0.014676,0.0011982,-0.0011982
31,0.61319,0.014413800000000001,0.0010831,-0.0010831
32,0.6136,0.015965800000000002,0.0014038,-0.0014038
33,0.61402,0.0160258,0.0011279,-0.0011279
34,0.61443,0.014743,0.0007621,-0.0007621
35,0.61484,0.014624,0.0009624000000000001,-0.0009624000000000001
36,0.61526,0.0142586,0.0008729000000000001,-0.0008729000000000001
37,0.61567,0.015141199999999999,0.0008614,-0.0008614
38,0.61609,0.014217,0.000965,-0.000965
39,0.6165,0.013877200000000001,0.0008673,-0.0008673
40,0.61692,0.0133703,0.0009714000000000001,-0.0009714000000000001
41,0.61733,0.015382499999999999,0.0008571,-0.0008571
42,0.61775,0.014668200000000001,0.0008998000000000001,-0.0008998000000000001
43,0.61816,0.0147838,0.0008792,-0.0008792
44,0.61858,0.0149966,0.0009028,-0.0009028
45,0.61899,0.0149488,0.0009282,-0.0009282
46,0.61941,0.0155924,0.001018,-0.001018
47,0.61982,0.0135069,0.0007726,-0.0007726
48,0.62024,0.0140394,0.0009760000000000001,-0.0009760000000000001
49,0.62065,0.0158612,0.0008059,-0.0008059
50,0.62107,0.015172900000000001,0.0010360999999999999,-0.0010360999999999999
51,0.62148,0.0137337,0.0008131,-0.0008131
52,0.6219,0.0156181,0.0008391,-0.0008391
53,0.62232,0.0150826,0.0007965,-0.0007965
54,0.62273,0.015629900000000002,0.0010172,-0.0010172
55,0.62315,0.015049300000000002,0.0008860999999999999,-0.0008860999999999999
56,0.62357,0.0145485,0.0008514,-0.0008514
57,0.62398,0.0146874,0.0007495000000000001,-0.0007495000000000001
58,0.6244,0.0151534,0.0006868000000000001,-0.0006868000000000001
59,0.62482,0.0153937,0.0008257000000000001,-0.0008257000000000001
60,0.62523,0.014756,0.0009843,-0.0009843
61,0.62565,0.0146226,0.0008732,-0.0008732
62,0.62607,0.013686799999999999,0.0008535,-0.0008535
63,0.62649,0.0144285,0.0009554,-0.0009554
64,0.6269,0.0154602,0.000787,-0.000787
65,0.62732,0.0160744,0.0010293,-0.0010293
66,0.62774,0.0138888,0.0006957,-0.0006957
67,0.62816,0.0147237,0.0008974,-0.0008974
68,0.62858,0.0143531,0.0006907,-0.0006907
69,0.62899,0.013551,0.000576,-0.000576
70,0.62941,0.0144609,0.0006887,-0.0006887
71,0.62983,0.0139407,0.0009109000000000001,-0.0009109000000000001
72,0.63025,0.0154592,0.000837,-0.000837
73,0.63067,0.014569700000000001,0.000881,-0.000881
74,0.63109,0.013864099999999999,0.0009054,-0.0009054
75,0.63151,0.014030100000000002,0.0006442,-0.0006442
76,0.63193,0.0159609,0.0008412000000000001,-0.0008412000000000001
77,0.63235,0.014501100000000001,0.0006575,-0.0006575
78,0.63276,0.014433000000000001,0.0006992,-0.0006992
79,0.63318,0.0147814,0.0007488,-0.0007488
80,0.6336,0.0141543,0.0006519,-0.0006519
81,0.63402,0.0148211,0.000732,-0.000732
82,0.63444,0.014289300000000001,0.0008865000000000001,-0.0008865000000000001
83,0.63486,0.013857900000000001,0.0006841,-0.0006841
84,0.63528,0.0158457,0.0009747,-0.0009747
85,0.6357,0.0144618,0.0006362,-0.0006362
86,0.63613,0.0137599,0.0006267,-0.0006267
87,0.63655,0.0133832,0.0007754,-0.0007754
88,0.63697,0.0137424,0.0007038,-0.0007038
89,0.63739,0.014658000000000001,0.0006251,-0.0006251
90,0.63781,0.013982099999999999,0.0006789000000000001,-0.0006789000000000001
91,0.63823,0.0139456,0.0006516,-0.0006516
92,0.63865,0.0127916,0.0005226,-0.0005226
93,0.63907,0.015011300000000002,0.000626,-0.000626
94,0.63949,0.014519500000000001,0.0007066,-0.0007066
95,0.63992,0.0137075,0.0008445,-0.0008445
96,0.64034,0.0138584,0.0007865999999999999,-0.0007865999999999999
97,0.64076,0.014113800000000001,0.0007416,-0.0007416
98,0.64118,0.0140099,0.0006123,-0.0006123
99,0.6416,0.015545,0.000771,-0.000771
100,0.64203,0.0148951,0.0007401,-0.0007401
101,0.64245,0.0147186,0.0007132,-0.0007132
102,0.64287,0.0139628,0.0006551,-0.0006551
103,0.64329,0.013367,0.0006129,-0.0006129
104,0.64372,0.0134582,0.0006121,-0.0006121
105,0.64414,0.014916700000000001,0.0007403,-0.0007403
106,0.64456,0.0152373,0.0006416,-0.0006416
107,0.64499,0.014181,0.000738,-0.000738
108,0.64541,0.015571,0.0007394000000000001,-0.0007394000000000001
109,0.64583,0.0144468,0.0006714000000000001,-0.0006714000000000001
110,0.64626,0.014257200000000001,0.0005673000000000001,-0.0005673000000000001
111,0.64668,0.0150393,0.0006529999999999999,-0.0006529999999999999
112,0.6471,0.0141638,0.0007108,-0.0007108
113,0.64753,0.014679800000000002,0.0006793000000000001,-0.0006793000000000001
114,0.64795,0.014339,0.0007748,-0.0007748
115,0.64838,0.013985700000000002,0.0005481,-0.0005481
116,0.6488,0.0133918,0.000558,-0.000558
117,0.64923,0.0141615,0.0006091,-0.0006091
118,0.64965,0.0140483,0.0006175,-0.0006175
119,0.65007,0.0144213,0.0005432,-0.0005432
120,0.6505,0.015157400000000001,0.0006524,-0.0006524
121,0.65092,0.0155192,0.0007401,-0.0007401
122,0.65135,0.014800800000000001,0.0007662,-0.0007662
123,0.65177,0.0149722,0.0008368000000000001,-0.0008368000000000001
124,0.6522,0.0140139,0.0006433999999999999,-0.0006433999999999999
125,0.65263,0.0155443,0.0007195,-0.0007195
126,0.65305,0.014524500000000001,0.0006815,-0.0006815
127,0.65348,0.013807,0.0005448,-0.0005448
128,0.6539,0.014272400000000001,0.0005637000000000001,-0.0005637000000000001
129,0.65433,0.0150591,0.0007498000000000001,-0.0007498000000000001
130,0.65475,0.0152792,0.0006319,-0.0006319
131,0.65518,0.0139392,0.0005943,-0.0005943
132,0.65561,0.015025100000000001,0.0005476000000000001,-0.0005476000000000001
133,0.65603,0.0147439,0.000678,-0.000678
134,0.65646,0.0159881,0.0007032,-0.0007032
135,0.65689,0.0129999,0.0006128,-0.0006128
136,0.65731,0.015320199999999999,0.0006354,-0.0006354
137,0.65774,0.015197400000000002,0.0006087999999999999,-0.0006087999999999999
138,0.65817,0.014594300000000001,0.0004953,-0.0004953
139,0.65859,0.0145672,0.0005523,-0.0005523
140,0.65902,0.014878800000000001,0.0005634,-0.0005634
141,0.65945,0.015502100000000001,0.0006794,-0.0006794
142,0.65988,0.0146645,0.0005989,-0.0005989
143,0.6603,0.0148531,0.00047030000000000005,-0.00047030000000000005
144,0.66073,0.014477400000000001,0.0004534,-0.0004534
145,0.66116,0.0132172,0.00041430000000000004,-0.00041430000000000004
146,0.66159,0.014511099999999999,0.0004381,-0.0004381
147,0.66202,0.0145272,0.0004664,-0.0004664
148,0.66244,0.0140807,0.0004423,-0.0004423
149,0.66287,0.0142538,0.00044929999999999997,-0.00044929999999999997
150,0.6633,0.0146184,0.0004631,-0.0004631
151,0.66373,0.014678400000000001,0.00043090000000000007,-0.00043090000000000007
152,0.66416,0.0141386,0.00043270000000000006,-0.00043270000000000006
153,0.66459,0.013806700000000002,0.0004535,-0.0004535
154,0.66502,0.014889300000000001,0.0004548,-0.0004548
155,0.66544,0.014801100000000001,0.0004293,-0.0004293
156,0.66587,0.0146935,0.00043880000000000004,-0.00043880000000000004
157,0.6663,0.0141236,0.00041860000000000004,-0.00041860000000000004
158,0.66673,0.014668500000000001,0.00044130000000000005,-0.00044130000000000005
159,0.66716,0.014410300000000001,0.0004435,-0.0004435
160,0.66759,0.014312700000000001,0.0004312,-0.0004312
161,0.66802,0.014475199999999999,0.0004156,-0.0004156
162,0.66845,0.014622999999999999,0.0004961,-0.0004961
163,0.66888,0.014020699999999999,0.0004004,-0.0004004
164,0.66931,0.013843000000000001,0.0004066,-0.0004066
165,0.66974,0.0139918,0.0004576,-0.0004576
166,0.67017,0.014512700000000002,0.0004273,-0.0004273
167,0.6706,0.0145618,0.00040419999999999996,-0.00040419999999999996
168,0.67103,0.014813400000000001,0.0004016,-0.0004016
169,0.67146,0.0142558,0.000448,-0.000448
170,0.67189,0.0145116,0.00043220000000000004,-0.00043220000000000004
171,0.67233,0.0144438,0.0004097,-0.0004097
172,0.67276,0.0132564,0.0004187,-0.0004187
173,0.67319,0.0148369,0.0004054,-0.0004054
174,0.67362,0.014227000000000002,0.0003914,-0.0003914
175,0.67405,0.0149339,0.0004326,-0.0004326
176,0.67448,0.0143211,0.00041480000000000005,-0.00041480000000000005
177,0.67491,0.014549000000000001,0.00042540000000000004,-0.00042540000000000004
178,0.67535,0.0152891,0.00041930000000000005,-0.00041930000000000005
179,0.67578,0.0151848,0.00043020000000000005,-0.00043020000000000005
180,0.67621,0.0134947,0.0004158,-0.0004158
181,0.67664,0.014216200000000002,0.0003914,-0.0003914
182,0.67707,0.014648099999999999,0.0003922,-0.0003922
183,0.67751,0.0143201,0.0004011,-0.0004011
184,0.67794,0.014488399999999999,0.00042750000000000004,-0.00042750000000000004
185,0.67837,0.0143797,0.0004201,-0.0004201
186,0.6788,0.015181500000000002,0.00043420000000000004,-0.00043420000000000004
187,0.67924,0.013772500000000002,0.0004286,-0.0004286
188,0.67967,0.0148001,0.0004194,-0.0004194
189,0.6801,0.014821200000000001,0.0004023,-0.0004023
190,0.68054,0.014883200000000001,0.0004257,-0.0004257
191,0.68097,0.014609700000000002,0.0003952,-0.0003952
192,0.6814,0.014351000000000001,0.00039890000000000005,-0.00039890000000000005
193,0.68184,0.0145029,0.00038330000000000005,-0.00038330000000000005
194,0.68227,0.0145807,0.00043200000000000004,-0.00043200000000000004
195,0.6827,0.014559899999999999,0.0003997,-0.0003997
196,0.68314,0.0143977,0.00039620000000000004,-0.00039620000000000004
197,0.68357,0.0146952,0.00036260000000000003,-0.00036260000000000003
198,0.68401,0.014838800000000001,0.0004119,-0.0004119
199,0.68444,0.014821800000000001,0.0004126,-0.0004126
200,0.68487,0.0136786,0.0003996,-0.0003996
201,0.68531,0.014861599999999999,0.00039260000000000006,-0.00039260000000000006
202,0.68574,0.0153964,0.0004091,-0.0004091
203,0.68618,0.014817499999999999,0.00041390000000000003,-0.00041390000000000003
204,0.68661,0.0146265,0.0003723,-0.0003723
205,0.68705,0.0143975,0.00040820000000000006,-0.00040820000000000006
206,0.68748,0.015188,0.00043319999999999996,-0.00043319999999999996
207,0.68792,0.014301900000000001,0.00038649999999999996,-0.00038649999999999996
208,0.68835,0.014519500000000001,0.0004049,-0.0004049
209,0.68879,0.0146257,0.0003352,-0.0003352
210,0.68922,0.0139031,0.00038350000000000005,-0.00038350000000000005
211,0.68966,0.0141154,0.00039309999999999996,-0.00039309999999999996
212,0.69009,0.0145696,0.00040750000000000004,-0.00040750000000000004
213,0.69053,0.0144215,0.000368,-0.000368
214,0.69097,0.014617500000000002,0.0003967,-0.0003967
215,0.6914,0.0150699,0.00040689999999999997,-0.00040689999999999997
216,0.69184,0.0139119,0.0003832,-0.0003832
217,0.69227,0.014209099999999999,0.00035749999999999996,-0.00035749999999999996
218,0.69271,0.0146014,0.0004101,-0.0004101
219,0.69315,0.0151758,0.0003997,-0.0003997
220,0.69358,0.0143413,0.0003816,-0.0003816
221,0.69402,0.014823,0.00038260000000000003,-0.00038260000000000003
222,0.69446,0.0142139,0.000356,-0.000356
223,0.69489,0.0145779,0.0003612,-0.0003612
224,0.69533,0.014755400000000002,0.0004072,-0.0004072
225,0.69577,0.0144516,0.0003981,-0.0003981
226,0.6962,0.013655600000000002,0.0004196,-0.0004196
227,0.69664,0.0145754,0.00038100000000000005,-0.00038100000000000005
228,0.69708,0.015165,0.0003867,-0.0003867
229,0.69752,0.014623200000000001,0.00036940000000000003,-0.00036940000000000003
230,0.69795,0.0144001,0.0003566,-0.0003566
231,0.69839,0.0149684,0.000388,-0.000388
232,0.69883,0.0145039,0.00038019999999999997,-0.00038019999999999997
233,0.69927,0.014361299999999999,0.00036060000000000004,-0.00036060000000000004
234,0.69971,0.0137285,0.0003806,-0.0003806
235,0.70014,0.0138845,0.0003882,-0.0003882
236,0.70058,0.013864600000000001,0.0003655,-0.0003655
237,0.70102,0.0147841,0.0004034,-0.0004034
238,0.70146,0.013828499999999999,0.00036920000000000003,-0.00036920000000000003
239,0.7019,0.014384300000000001,0.0003693,-0.0003693
240,0.70234,0.015212300000000002,0.0003591,-0.0003591
241,0.70277,0.0153642,0.00039820000000000003,-0.00039820000000000003
242,0.70321,0.0145736,0.00038530000000000004,-0.00038530000000000004
243,0.70365,0.015043299999999999,0.00039759999999999996,-0.00039759999999999996
244,0.70409,0.014268099999999999,0.0003753,-0.0003753
245,0.70453,0.014751799999999999,0.0003817,-0.0003817
246,0.70497,0.0142367,0.00040300000000000004,-0.00040300000000000004
247,0.70541,0.0140411,0.0003445,-0.0003445
248,0.70585,0.014341699999999999,0.0003684,-0.0003684
249,0.70629,0.0142182,0.0003924,-0.0003924
250,0.70673,0.014278200000000001,0.0003605,-0.0003605
251,0.70717,0.0145814,0.0003585,-0.0003585
252,0.70761,0.0139571,0.0003392,-0.0003392
253,0.70805,0.0138648,0.0003773,-0.0003773
254,0.70849,0.0140269,0.0003932,-0.0003932
255,0.70893,0.0139888,0.0003587,-0.0003587
256,0.70937,0.0146725,0.0003703,-0.0003703
257,0.70981,0.0152188,0.0003684,-0.0003684
258,0.71025,0.0155037,0.00037240000000000005,-0.00037240000000000005
259,0.71069,0.0148227,0.0003998,-0.0003998
260,0.71113,0.0142561,0.00038980000000000004,-0.00038980000000000004
261,0.71157,0.014811399999999999,0.0003721,-0.0003721
262,0.71201,0.0149535,0.0003616,-0.0003616
263,0.71245,0.0142794,0.0004058,-0.0004058
264,0.7129,0.014984800000000001,0.0004045,-0.0004045
265,0.71334,0.0146719,0.0003857,-0.0003857
266,0.71378,0.0141521,0.0003793,-0.0003793
267,0.71422,0.014636800000000002,0.00039129999999999997,-0.00039129999999999997
268,0.71466,0.0147472,0.0003703,-0.0003703
269,0.7151,0.0145947,0.00036179999999999996,-0.00036179999999999996
270,0.71555,0.0150684,0.00038879999999999996,-0.00038879999999999996
271,0.71599,0.014888600000000002,0.0003798,-0.0003798
272,0.71643,0.015571699999999999,0.0003682,-0.0003682
273,0.71687,0.0146003,0.0003469,-0.0003469
274,0.71731,0.014122200000000001,0.0003524,-0.0003524
275,0.71776,0.0143912,0.00037,-0.00037
276,0.7182,0.0148628,0.0004085,-0.0004085
277,0.71864,0.0149954,0.0003548,-0.0003548
278,0.71908,0.0149827,0.0003774,-0.0003774
279,0.71953,0.014882200000000002,0.000366,-0.000366
280,0.71997,0.0141971,0.0004047,-0.0004047
281,0.72041,0.0145773,0.0003791,-0.0003791
282,0.72086,0.014651700000000002,0.0003799,-0.0003799
283,0.7213,0.015112200000000001,0.0003682,-0.0003682
284,0.72174,0.0140824,0.00038600000000000006,-0.00038600000000000006
285,0.72219,0.0145587,0.00038600000000000006,-0.00038600000000000006
286,0.72263,0.015090600000000001,0.0003866,-0.0003866
287,0.72307,0.014071400000000001,0.0004189,-0.0004189
288,0.72352,0.014189,0.00038469999999999997,-0.00038469999999999997
289,0.72396,0.014504,0.000364,-0.000364
290,0.7244,0.013990800000000001,0.0003597,-0.0003597
291,0.72485,0.014197900000000001,0.00037420000000000004,-0.00037420000000000004
292,0.72529,0.014500200000000001,0.00037830000000000003,-0.00037830000000000003
293,0.72574,0.0144529,0.0003907,-0.0003907
294,0.72618,0.014131000000000001,0.000349,-0.000349
295,0.72662,0.014133199999999999,0.00036720000000000004,-0.00036720000000000004
296,0.72707,0.014288200000000001,0.0003924,-0.0003924
297,0.72751,0.014962200000000002,0.00039840000000000003,-0.00039840000000000003
298,0.72796,0.014472400000000002,0.0003609,-0.0003609
299,0.7284,0.0148295,0.00039370000000000003,-0.00039370000000000003
300,0.72885,0.0137069,0.0003657,-0.0003657
301,0.72929,0.014094899999999999,0.0003837,-0.0003837
302,0.72974,0.0151137,0.0003415,-0.0003415
303,0.73018,0.0150089,0.0004051,-0.0004051
304,0.73063,0.0151589,0.0003741,-0.0003741
305,0.73107,0.014339,0.0003435,-0.0003435
306,0.73152,0.0147193,0.00034209999999999997,-0.00034209999999999997
307,0.73196,0.0140835,0.0003537,-0.0003537
308,0.73241,0.014938700000000001,0.00038019999999999997,-0.00038019999999999997
309,0.73286,0.0144133,0.0003927,-0.0003927
310,0.7333,0.0145122,0.0003585,-0.0003585
311,0.73375,0.0146499,0.0004134,-0.0004134
312,0.73419,0.0141469,0.0003446,-0.0003446
313,0.73464,0.014890200000000001,0.00037580000000000003,-0.00037580000000000003
314,0.73509,0.014407399999999999,0.0003751,-0.0003751
315,0.73553,0.0141127,0.0003798,-0.0003798
316,0.73598,0.0146058,0.0003863,-0.0003863
317,0.73643,0.014649,0.0003394,-0.0003394
318,0.73687,0.014659,0.0003597,-0.0003597
319,0.73732,0.0142703,0.00037769999999999997,-0.00037769999999999997
320,0.73777,0.0152411,0.00038350000000000005,-0.00038350000000000005
321,0.73821,0.014468000000000002,0.0003703,-0.0003703
322,0.73866,0.0143044,0.000385,-0.000385
323,0.73911,0.0144052,0.0003932,-0.0003932
324,0.73955,0.0137553,0.00040710000000000003,-0.00040710000000000003
325,0.74,0.013215900000000001,0.00037039999999999995,-0.00037039999999999995
326,0.74045,0.0145903,0.0003706,-0.0003706
327,0.7409,0.014075,0.0004053,-0.0004053
328,0.74134,0.013976299999999999,0.0003942,-0.0003942
329,0.74179,0.014173100000000001,0.00036970000000000004,-0.00036970000000000004
330,0.74224,0.0138581,0.00035880000000000005,-0.00035880000000000005
331,0.74269,0.014830600000000001,0.0003905,-0.0003905
332,0.74314,0.0137731,0.0003533,-0.0003533
333,0.74358,0.0145917,0.0003658,-0.0003658
334,0.74403,0.014081999999999999,0.00036740000000000004,-0.00036740000000000004
335,0.74448,0.0137299,0.00039559999999999997,-0.00039559999999999997
336,0.74493,0.0145503,0.0003905,-0.0003905
337,0.74538,0.0138117,0.00038980000000000004,-0.00038980000000000004
338,0.74582,0.0148733,0.00041380000000000003,-0.00041380000000000003
339,0.74627,0.0147778,0.0003793,-0.0003793
340,0.74672,0.014787699999999999,0.0003852,-0.0003852
341,0.74717,0.014234100000000001,0.0003744,-0.0003744
342,0.74762,0.0145627,0.0004187,-0.0004187
343,0.74807,0.014528000000000001,0.0003698,-0.0003698
344,0.74852,0.014007,0.00042479999999999997,-0.00042479999999999997
345,0.74897,0.0144981,0.00039370000000000003,-0.00039370000000000003
346,0.74942,0.0149332,0.0003983,-0.0003983
347,0.74987,0.013707800000000001,0.00036560000000000005,-0.00036560000000000005
348,0.75032,0.0146111,0.00037600000000000003,-0.00037600000000000003
349,0.75076,0.0139687,0.00037220000000000005,-0.00037220000000000005
350,0.75121,0.0138829,0.00038300000000000004,-0.00038300000000000004
351,0.75166,0.0140032,0.00037900000000000005,-0.00037900000000000005
352,0.75211,0.014627399999999999,0.00035700000000000006,-0.00035700000000000006
353,0.75256,0.0136815,0.0004039,-0.0004039
354,0.75301,0.0140983,0.0003945,-0.0003945
355,0.75346,0.014210799999999999,0.0003752,-0.0003752
356,0.75391,0.0144648,0.00038030000000000003,-0.00038030000000000003
357,0.75436,0.0145634,0.0004038,-0.0004038
358,0.75482,0.0146203,0.0003879,-0.0003879
359,0.75527,0.0142204,0.0003728,-0.0003728
360,0.75572,0.0138577,0.00040710000000000003,-0.00040710000000000003
361,0.75617,0.013991,0.00040090000000000004,-0.00040090000000000004
362,0.75662,0.0144659,0.00038350000000000005,-0.00038350000000000005
363,0.75707,0.014946500000000001,0.0003664,-0.0003664
364,0.75752,0.0144932,0.00038960000000000004,-0.00038960000000000004
365,0.75797,0.014760899999999999,0.0003844,-0.0003844
366,0.75842,0.014548000000000002,0.0003866,-0.0003866
367,0.75887,0.0145321,0.00038350000000000005,-0.00038350000000000005
368,0.75932,0.014098,0.0003868,-0.0003868
369,0.75978,0.014609700000000002,0.00037190000000000004,-0.00037190000000000004
370,0.76023,0.014626600000000002,0.00039579999999999997,-0.00039579999999999997
371,0.76068,0.0143092,0.0003893,-0.0003893
372,0.76113,0.0137465,0.00036409999999999996,-0.00036409999999999996
373,0.76158,0.0151399,0.0004179,-0.0004179
374,0.76203,0.0151494,0.0004008,-0.0004008
375,0.76249,0.0144827,0.0003771,-0.0003771
376,0.76294,0.0147908,0.0004065,-0.0004065
377,0.76339,0.0150565,0.0003755,-0.0003755
378,0.76384,0.015079400000000001,0.0004126,-0.0004126
379,0.76429,0.0142452,0.00039890000000000005,-0.00039890000000000005
380,0.76475,0.014250400000000002,0.0003764,-0.0003764
381,0.7652,0.0147538,0.0003232,-0.0003232
382,0.76565,0.0144006,0.0004074,-0.0004074
383,0.7661,0.0148438,0.0004393,-0.0004393
384,0.76656,0.0152116,0.000446,-0.000446
385,0.76701,0.014392799999999999,0.0004404,-0.0004404
386,0.76746,0.0143787,0.0003904,-0.0003904
387,0.76792,0.0145729,0.00040570000000000005,-0.00040570000000000005
388,0.76837,0.0148122,0.00039460000000000005,-0.00039460000000000005
389,0.76882,0.014900400000000001,0.0004119,-0.0004119
390,0.76927,0.0138898,0.00037490000000000006,-0.00037490000000000006
391,0.76973,0.0148755,0.0003995,-0.0003995
392,0.77018,0.015440100000000002,0.0004056,-0.0004056
393,0.77063,0.014704900000000002,0.0004253,-0.0004253
394,0.77109,0.0146934,0.0003957,-0.0003957
395,0.77154,0.0145471,0.0004133,-0.0004133
396,0.772,0.0146631,0.0004049,-0.0004049
397,0.77245,0.015561400000000001,0.0004172,-0.0004172
398,0.7729,0.015157700000000001,0.0003927,-0.0003927
399,0.77336,0.0144848,0.0003695,-0.0003695
400,0.77381,0.0142323,0.0003637,-0.0003637
401,0.77427,0.014178200000000002,0.00041390000000000003,-0.00041390000000000003
402,0.77472,0.014660200000000002,0.00039440000000000005,-0.00039440000000000005
403,0.77517,0.0144893,0.0003864,-0.0003864
404,0.77563,0.0160018,0.0004147,-0.0004147
405,0.77608,0.0144337,0.0004405,-0.0004405
406,0.77654,0.015045900000000001,0.0004312,-0.0004312
407,0.77699,0.014652700000000001,0.00041529999999999996,-0.00041529999999999996
408,0.77745,0.01456,0.0004312,-0.0004312
409,0.7779,0.0139293,0.0004239,-0.0004239
410,0.77836,0.0139302,0.0004167,-0.0004167
411,0.77881,0.0151501,0.00045740000000000006,-0.00045740000000000006
412,0.77927,0.0140648,0.00039620000000000004,-0.00039620000000000004
413,0.77972,0.0146362,0.00039940000000000006,-0.00039940000000000006
414,0.78018,0.0144234,0.0004313,-0.0004313
415,0.78063,0.013330900000000001,0.00038080000000000004,-0.00038080000000000004
416,0.78109,0.0139516,0.0004104,-0.0004104
417,0.78154,0.0139387,0.00038960000000000004,-0.00038960000000000004
418,0.782,0.013418000000000001,0.0004268,-0.0004268
419,0.78246,0.014721,0.0004257,-0.0004257
420,0.78291,0.0130335,0.00043,-0.00043
421,0.78337,0.013968000000000001,0.0004126,-0.0004126
422,0.78382,0.0134833,0.00044280000000000003,-0.00044280000000000003
423,0.78428,0.014114500000000002,0.0004416,-0.0004416
424,0.78473,0.0138121,0.0004253,-0.0004253
425,0.78519,0.0136687,0.0004268,-0.0004268
426,0.78565,0.0139333,0.0004133,-0.0004133
427,0.7861,0.0143255,0.0004667,-0.0004667
428,0.78656,0.0148371,0.00043200000000000004,-0.00043200000000000004
429,0.78702,0.014652400000000001,0.000443,-0.000443
430,0.78747,0.014080200000000001,0.00044310000000000004,-0.00044310000000000004
431,0.78793,0.013249200000000001,0.00041680000000000005,-0.00041680000000000005
432,0.78839,0.014480699999999999,0.0004371,-0.0004371
433,0.78884,0.0143516,0.00047230000000000004,-0.00047230000000000004
434,0.7893,0.0147569,0.00040800000000000005,-0.00040800000000000005
435,0.78976,0.014618899999999999,0.00041390000000000003,-0.00041390000000000003
436,0.79021,0.0132835,0.0004122,-0.0004122
437,0.79067,0.014846999999999999,0.00046760000000000004,-0.00046760000000000004
438,0.79113,0.0144445,0.000464,-0.000464
439,0.79159,0.0140984,0.0004065,-0.0004065
440,0.79204,0.0147522,0.0004029,-0.0004029
441,0.7925,0.0153658,0.0004399,-0.0004399
442,0.79296,0.0147559,0.0004462,-0.0004462
443,0.79342,0.015782,0.0004261,-0.0004261
444,0.79387,0.0144218,0.0004346,-0.0004346
445,0.79433,0.0145851,0.00044790000000000005,-0.00044790000000000005
446,0.79479,0.014395400000000001,0.0004586,-0.0004586
447,0.79525,0.0139879,0.0004583,-0.0004583
448,0.79571,0.013596299999999999,0.00042360000000000005,-0.00042360000000000005
449,0.79616,0.0144629,0.00045690000000000005,-0.00045690000000000005
450,0.79662,0.0141062,0.0004396,-0.0004396
451,0.79708,0.014569,0.0004623,-0.0004623
452,0.79754,0.0148122,0.00039440000000000005,-0.00039440000000000005
453,0.798,0.0140771,0.0004662,-0.0004662
454,0.79846,0.014240200000000001,0.0004298,-0.0004298
455,0.79891,0.0147703,0.0004847,-0.0004847
456,0.79937,0.014274100000000001,0.00045190000000000003,-0.00045190000000000003
457,0.79983,0.0138619,0.0004601,-0.0004601
458,0.80029,0.0138948,0.0004372,-0.0004372
459,0.80075,0.01348,0.00048770000000000004,-0.00048770000000000004
460,0.80121,0.014669300000000001,0.00045490000000000005,-0.00045490000000000005
461,0.80167,0.0144493,0.000456,-0.000456
462,0.80213,0.0148575,0.0004157,-0.0004157
463,0.80259,0.014311400000000002,0.0004387,-0.0004387
464,0.80304,0.0149364,0.0004908,-0.0004908
465,0.8035,0.0144312,0.0004353,-0.0004353
466,0.80396,0.013889100000000001,0.00042750000000000004,-0.00042750000000000004
467,0.80442,0.013553299999999999,0.00045440000000000004,-0.00045440000000000004
468,0.80488,0.0134907,0.0004287,-0.0004287
469,0.80534,0.0129652,0.0004611,-0.0004611
470,0.8058,0.0148714,0.0004331,-0.0004331
471,0.80626,0.0137451,0.0004558,-0.0004558
472,0.80672,0.014165200000000001,0.0005023,-0.0005023
473,0.80718,0.0157102,0.0004883,-0.0004883
474,0.80764,0.0137977,0.0004805,-0.0004805
475,0.8081,0.0138162,0.00045260000000000005,-0.00045260000000000005
476,0.80856,0.0141204,0.0004944,-0.0004944
477,0.80902,0.014447000000000002,0.0005079,-0.0005079
478,0.80948,0.0136628,0.00047829999999999997,-0.00047829999999999997
479,0.80994,0.014416100000000001,0.0004694,-0.0004694
480,0.8104,0.015392699999999999,0.0005386,-0.0005386
481,0.81086,0.0149461,0.0004712,-0.0004712
482,0.81132,0.0146287,0.0005054,-0.0005054
483,0.81179,0.0153867,0.00047910000000000004,-0.00047910000000000004
484,0.81225,0.0139292,0.0004745,-0.0004745
485,0.81271,0.0142367,0.0005406,-0.0005406
486,0.81317,0.015009900000000001,0.000517,-0.000517
487,0.81363,0.0141665,0.0004921,-0.0004921
488,0.81409,0.0153303,0.0004727,-0.0004727
489,0.81455,0.0140865,0.0005117,-0.0005117
490,0.81501,0.014880800000000001,0.0004872,-0.0004872
491,0.81547,0.0147497,0.0005186,-0.0005186
492,0.81593,0.014278200000000001,0.0004603,-0.0004603
493,0.8164,0.0152872,0.0005290000000000001,-0.0005290000000000001
494,0.81686,0.0146349,0.00046489999999999997,-0.00046489999999999997
495,0.81732,0.0139482,0.0005020000000000001,-0.0005020000000000001
496,0.81778,0.014958100000000002,0.000541,-0.000541
497,0.81824,0.0140292,0.0005124,-0.0005124
498,0.8187,0.014071700000000001,0.0004515,-0.0004515
499,0.81917,0.014775700000000001,0.0005084,-0.0005084
500,0.81963,0.013326800000000001,0.0004667,-0.0004667
501,0.82009,0.014874700000000001,0.0005246,-0.0005246
502,0.82055,0.014628000000000002,0.0005159,-0.0005159
503,0.82101,0.0149124,0.000506,-0.000506
504,0.82148,0.0151385,0.00047149999999999997,-0.00047149999999999997
505,0.82194,0.014570099999999999,0.00046269999999999997,-0.00046269999999999997
506,0.8224,0.0137707,0.0004824,-0.0004824
507,0.82286,0.0133394,0.0004935,-0.0004935
508,0.82333,0.0129119,0.00048120000000000004,-0.00048120000000000004
509,0.82379,0.0142072,0.0004950999999999999,-0.0004950999999999999
510,0.82425,0.0144035,0.0005042,-0.0005042
511,0.82471,0.0142415,0.0005346,-0.0005346
512,0.82518,0.014830600000000001,0.0005059,-0.0005059
513,0.82564,0.014863200000000002,0.0005044,-0.0005044
514,0.8261,0.0140807,0.00045690000000000005,-0.00045690000000000005
515,0.82657,0.014197900000000001,0.0005132,-0.0005132
516,0.82703,0.0141259,0.0005167,-0.0005167
517,0.82749,0.0155917,0.0004974000000000001,-0.0004974000000000001
518,0.82796,0.015240700000000001,0.0005399000000000001,-0.0005399000000000001
519,0.82842,0.0139711,0.0005013999999999999,-0.0005013999999999999
520,0.82888,0.014735700000000001,0.0005229000000000001,-0.0005229000000000001
521,0.82935,0.0140192,0.0005166,-0.0005166
522,0.82981,0.0153399,0.0005146,-0.0005146
523,0.83027,0.0150023,0.0005126,-0.0005126
524,0.83074,0.0139646,0.0005045000000000001,-0.0005045000000000001
525,0.8312,0.0146551,0.0004712,-0.0004712
526,0.83166,0.0142824,0.0005321,-0.0005321
527,0.83213,0.0133476,0.0005589000000000001,-0.0005589000000000001
528,0.83259,0.0142754,0.0005119,-0.0005119
529,0.83305,0.013369500000000001,0.0005165,-0.0005165
530,0.83352,0.014242999999999999,0.0005989,-0.0005989
531,0.83398,0.014594300000000001,0.0005511,-0.0005511
532,0.83445,0.015465,0.0005005,-0.0005005
533,0.83491,0.015638000000000003,0.0005703,-0.0005703
534,0.83538,0.013102,0.0005253,-0.0005253
535,0.83584,0.0140967,0.000598,-0.000598
536,0.8363,0.013900200000000001,0.0005302,-0.0005302
537,0.83677,0.0145889,0.0005315000000000001,-0.0005315000000000001
538,0.83723,0.0136643,0.000527,-0.000527
539,0.8377,0.01391,0.000584,-0.000584
540,0.83816,0.014152,0.0005199,-0.0005199
541,0.83863,0.0149772,0.0005842,-0.0005842
542,0.83909,0.0162366,0.0005746,-0.0005746
543,0.83956,0.0132479,0.0005773,-0.0005773
544,0.84002,0.016073900000000002,0.0005331,-0.0005331
545,0.84049,0.0150682,0.0005611,-0.0005611
546,0.84095,0.0133495,0.0005743,-0.0005743
547,0.84142,0.0145825,0.0005368,-0.0005368
548,0.84188,0.0141672,0.0005055,-0.0005055
549,0.84235,0.0152389,0.0005683,-0.0005683
550,0.84281,0.0134544,0.0005859000000000001,-0.0005859000000000001
551,0.84328,0.0152579,0.0006230000000000001,-0.0006230000000000001
552,0.84374,0.0149908,0.0006096,-0.0006096
553,0.84421,0.015152500000000001,0.0006184,-0.0006184
554,0.84468,0.0146162,0.0005797,-0.0005797
555,0.84514,0.014207399999999999,0.0005464,-0.0005464
556,0.84561,0.0156175,0.0006231,-0.0006231
557,0.84607,0.0145751,0.0005920000000000001,-0.0005920000000000001
558,0.84654,0.0148143,0.0005871,-0.0005871
559,0.847,0.014479900000000002,0.0005311,-0.0005311
560,0.84747,0.014048099999999999,0.0005962,-0.0005962
561,0.84794,0.015569200000000002,0.0005543,-0.0005543
562,0.8484,0.0120095,0.000591,-0.000591
563,0.84887,0.0139566,0.0005906,-0.0005906
564,0.84934,0.014097,0.0005946,-0.0005946
565,0.8498,0.0135925,0.0006417,-0.0006417
566,0.85094,0.0141571,0.00031989999999999997,-0.00031989999999999997
567,0.85183,0.015759600000000002,0.0003342,-0.0003342
568,0.85271,0.014531700000000002,0.000336,-0.000336
569,0.85359,0.0149454,0.000361,-0.000361
570,0.85448,0.0140221,0.000338,-0.000338
571,0.85536,0.0138476,0.0003099,-0.0003099
572,0.85625,0.0146159,0.0003058,-0.0003058
573,0.85713,0.0140981,0.00031370000000000004,-0.00031370000000000004
574,0.85802,0.0140423,0.0002993,-0.0002993
575,0.8589,0.0142445,0.00032,-0.00032
576,0.85979,0.0140544,0.0003221,-0.0003221
577,0.86068,0.014113500000000001,0.0003188,-0.0003188
578,0.86156,0.014282300000000001,0.0003165,-0.0003165
579,0.86245,0.013792100000000002,0.0003247,-0.0003247
580,0.86334,0.013062,0.0002955,-0.0002955
581,0.86422,0.013853500000000001,0.0003108,-0.0003108
582,0.86511,0.0143366,0.00031309999999999997,-0.00031309999999999997
583,0.866,0.0140053,0.00034189999999999996,-0.00034189999999999996
584,0.86689,0.0141868,0.0003319,-0.0003319
585,0.86777,0.0138843,0.000306,-0.000306
586,0.86866,0.014722800000000001,0.000348,-0.000348
587,0.86955,0.0140702,0.0003159,-0.0003159
588,0.87044,0.013912800000000001,0.000303,-0.000303
589,0.87133,0.0144645,0.0002988,-0.0002988
590,0.87222,0.014246300000000002,0.0003233,-0.0003233
591,0.87311,0.0139267,0.00032480000000000003,-0.00032480000000000003
592,0.874,0.0142781,0.00031850000000000004,-0.00031850000000000004
593,0.87488,0.0139851,0.0002828,-0.0002828
594,0.87577,0.0144215,0.0003363,-0.0003363
595,0.87667,0.014053500000000002,0.0002987,-0.0002987
596,0.87756,0.0144367,0.0003165,-0.0003165
597,0.87845,0.0148752,0.0002909,-0.0002909
598,0.87934,0.014198,0.0003142,-0.0003142
599,0.88023,0.0143607,0.00028690000000000003,-0.00028690000000000003
600,0.88112,0.0139662,0.0003034,-0.0003034
601,0.88201,0.0146221,0.0002994,-0.0002994
602,0.8829,0.014324600000000002,0.00028440000000000003,-0.00028440000000000003
603,0.8838,0.014534400000000001,0.00032300000000000004,-0.00032300000000000004
604,0.88469,0.014199999999999999,0.0002843,-0.0002843
605,0.88558,0.0139757,0.0002896,-0.0002896
606,0.88647,0.0147852,0.0002914,-0.0002914
607,0.88737,0.0145417,0.0003148,-0.0003148
608,0.88826,0.0138986,0.0002742,-0.0002742
609,0.88915,0.014341699999999999,0.0002888,-0.0002888
610,0.89005,0.0143181,0.0002774,-0.0002774
611,0.89094,0.0146209,0.0003011,-0.0003011
612,0.89183,0.014407600000000001,0.0003017,-0.0003017
613,0.89273,0.014096599999999999,0.0002863,-0.0002863
614,0.89362,0.0141739,0.0002927,-0.0002927
615,0.89452,0.0141353,0.0002817,-0.0002817
616,0.89541,0.0144389,0.000295,-0.000295
617,0.89631,0.0143531,0.00030040000000000004,-0.00030040000000000004
618,0.8972,0.014690300000000002,0.0003083,-0.0003083
619,0.8981,0.014378100000000001,0.00030030000000000004,-0.00030030000000000004
620,0.899,0.014776000000000001,0.0002845,-0.0002845
621,0.89989,0.0147109,0.00030720000000000004,-0.00030720000000000004
622,0.90079,0.0144007,0.00028910000000000003,-0.00028910000000000003
623,0.90168,0.0144081,0.00033160000000000004,-0.00033160000000000004
624,0.90258,0.0152979,0.0003032,-0.0003032
625,0.90348,0.0147132,0.0002987,-0.0002987
626,0.90438,0.013926099999999999,0.0002945,-0.0002945
627,0.90527,0.014191100000000002,0.0003092,-0.0003092
628,0.90617,0.0145125,0.0002937,-0.0002937
629,0.90707,0.0147789,0.0003189,-0.0003189
630,0.90797,0.014695100000000001,0.0002587,-0.0002587
631,0.90886,0.014663500000000001,0.0002573,-0.0002573
632,0.90976,0.0144156,0.0002876,-0.0002876
633,0.91066,0.0136758,0.0003173,-0.0003173
634,0.91156,0.013932,0.0002982,-0.0002982
635,0.91246,0.014565300000000002,0.0002852,-0.0002852
636,0.91336,0.014521800000000001,0.0002882,-0.0002882
637,0.91426,0.0141414,0.000297,-0.000297
638,0.91516,0.014392799999999999,0.00028230000000000003,-0.00028230000000000003
639,0.91606,0.0144717,0.00029340000000000003,-0.00029340000000000003
640,0.91696,0.014004700000000002,0.00027140000000000004,-0.00027140000000000004
641,0.91786,0.0139789,0.000293,-0.000293
642,0.91876,0.0142875,0.00028230000000000003,-0.00028230000000000003
643,0.91966,0.014638,0.0003151,-0.0003151
644,0.92056,0.0144709,0.0002886,-0.0002886
645,0.92146,0.014142600000000002,0.0003005,-0.0003005
646,0.92236,0.0155216,0.0002833,-0.0002833
647,0.92327,0.013994800000000002,0.0002594,-0.0002594
648,0.92417,0.0135249,0.0002735,-0.0002735
649,0.92507,0.014846600000000001,0.00028920000000000004,-0.00028920000000000004
650,0.92597,0.0138459,0.0002673,-0.0002673
651,0.92688,0.0146643,0.0002815,-0.0002815
652,0.92778,0.0141804,0.00027289999999999997,-0.00027289999999999997
653,0.92868,0.0142117,0.0002815,-0.0002815
654,0.92958,0.0148091,0.0002991,-0.0002991
655,0.93049,0.014498,0.00028490000000000004,-0.00028490000000000004
656,0.93139,0.014049,0.0002811,-0.0002811
657,0.9323,0.014185900000000001,0.0002774,-0.0002774
658,0.9332,0.0139682,0.0002687,-0.0002687
659,0.9341,0.0146479,0.0002931,-0.0002931
660,0.93501,0.0145464,0.00026660000000000003,-0.00026660000000000003
661,0.93591,0.0147679,0.0003039,-0.0003039
662,0.93682,0.0145903,0.0002803,-0.0002803
663,0.93772,0.014342800000000001,0.0002963,-0.0002963
664,0.93863,0.0139267,0.0002779,-0.0002779
665,0.93953,0.0142824,0.0002908,-0.0002908
666,0.94044,0.0142434,0.00028639999999999997,-0.00028639999999999997
667,0.94134,0.014055999999999999,0.00029800000000000003,-0.00029800000000000003
668,0.94225,0.0144048,0.0002904,-0.0002904
669,0.94316,0.014657100000000001,0.0002931,-0.0002931
670,0.94406,0.014842500000000002,0.0002848,-0.0002848
671,0.94497,0.014308099999999999,0.0002767,-0.0002767
672,0.94588,0.014667,0.00029610000000000004,-0.00029610000000000004
673,0.94678,0.014594300000000001,0.00026470000000000004,-0.00026470000000000004
674,0.94769,0.014354800000000001,0.0002597,-0.0002597
675,0.9486,0.0141402,0.0002663,-0.0002663
676,0.94951,0.0143341,0.0002711,-0.0002711
677,0.95041,0.0143791,0.0002611,-0.0002611
678,0.95132,0.014614799999999999,0.00028920000000000004,-0.00028920000000000004
679,0.95223,0.0138137,0.0002848,-0.0002848
680,0.95314,0.0143313,0.0002786,-0.0002786
681,0.95405,0.014185399999999999,0.00028500000000000004,-0.00028500000000000004
682,0.95496,0.014614199999999999,0.0002634,-0.0002634
683,0.95587,0.014069100000000001,0.00025340000000000003,-0.00025340000000000003
684,0.95677,0.0146672,0.0003048,-0.0003048
685,0.95768,0.014292100000000002,0.0002722,-0.0002722
686,0.95859,0.0143675,0.000266,-0.000266
687,0.9595,0.014634000000000001,0.000249,-0.000249
688,0.96041,0.0141011,0.00025350000000000004,-0.00025350000000000004
689,0.96132,0.014333,0.0002725,-0.0002725
690,0.96223,0.014805600000000002,0.0002817,-0.0002817
691,0.96315,0.014173400000000001,0.00026030000000000004,-0.00026030000000000004
692,0.96406,0.0142533,0.0002592,-0.0002592
693,0.96497,0.0139103,0.000254,-0.000254
694,0.96588,0.014396500000000001,0.0002752,-0.0002752
695,0.96679,0.014444300000000002,0.0002722,-0.0002722
696,0.9677,0.0147545,0.0002744,-0.0002744
697,0.96861,0.0141119,0.0002832,-0.0002832
698,0.96953,0.0146295,0.0002795,-0.0002795
699,0.97044,0.014241900000000002,0.00024870000000000003,-0.00024870000000000003
700,0.97135,0.014710399999999998,0.0002649,-0.0002649
701,0.97226,0.0146374,0.0002677,-0.0002677
702,0.97318,0.014878100000000002,0.0002727,-0.0002727
703,0.97409,0.014407099999999999,0.00027289999999999997,-0.00027289999999999997
704,0.975,0.014069400000000001,0.000262,-0.000262
705,0.97591,0.01425,0.0002607,-0.0002607
706,0.97683,0.014225000000000002,0.0002749,-0.0002749
707,0.97774,0.013892,0.0002519,-0.0002519
708,0.97866,0.0143368,0.00028500000000000004,-0.00028500000000000004
709,0.97957,0.0146033,0.0002698,-0.0002698
710,0.98048,0.014692,0.0002702,-0.0002702
711,0.9814,0.013279000000000001,0.0002356,-0.0002356
712,0.98231,0.014543200000000001,0.0002749,-0.0002749
713,0.98323,0.014708200000000001,0.0002678,-0.0002678
714,0.98414,0.013356699999999999,0.0002649,-0.0002649
715,0.98506,0.014301600000000001,0.0002698,-0.0002698
716,0.98597,0.014563600000000001,0.0002641,-0.0002641
717,0.98689,0.0140718,0.00026900000000000003,-0.00026900000000000003
718,0.98781,0.014775799999999999,0.000261,-0.000261
719,0.98872,0.014351100000000002,0.0002485,-0.0002485
720,0.98964,0.0142451,0.00023590000000000001,-0.00023590000000000001
721,0.99055,0.014247099999999999,0.00023930000000000002,-0.00023930000000000002
722,0.99147,0.0137173,0.0002607,-0.0002607
723,0.99239,0.0144759,0.00025790000000000003,-0.00025790000000000003
724,0.9933,0.0144227,0.0002512,-0.0002512
725,0.99422,0.0148475,0.000265,-0.000265
726,0.99514,0.0145874,0.0002764,-0.0002764
727,0.99606,0.014348399999999999,0.0002506,-0.0002506
728,0.99697,0.0147913,0.00027580000000000004,-0.00027580000000000004
729,0.99789,0.014354,0.0002333,-0.0002333
730,0.99881,0.014488700000000002,0.0002765,-0.0002765
731,0.99973,0.0137889,0.000265,-0.000265
732,1.00065,0.014119600000000001,0.0002404,-0.0002404
733,1.00156,0.014009,0.0002505,-0.0002505
734,1.00248,0.014414800000000002,0.00024070000000000002,-0.00024070000000000002
735,1.0034,0.0143346,0.00025770000000000003,-0.00025770000000000003
736,1.00432,0.014319900000000002,0.00023490000000000002,-0.00023490000000000002
737,1.00524,0.014776300000000001,0.00025350000000000004,-0.00025350000000000004
738,1.00616,0.014432400000000001,0.0002664,-0.0002664
739,1.00708,0.0149325,0.0002471,-0.0002471
740,1.008,0.014224500000000001,0.0002537,-0.0002537
741,1.00892,0.0141971,0.0002716,-0.0002716
742,1.00984,0.0148724,0.0002581,-0.0002581
743,1.01076,0.014762500000000001,0.0002573,-0.0002573
744,1.01168,0.0144404,0.00025110000000000003,-0.00025110000000000003
745,1.0126,0.014202300000000001,0.0002665,-0.0002665
746,1.01352,0.0148178,0.00025069999999999997,-0.00025069999999999997
747,1.01444,0.0141143,0.00025749999999999997,-0.00025749999999999997
748,1.01536,0.0141375,0.0002693,-0.0002693
749,1.01629,0.0140245,0.00023820000000000002,-0.00023820000000000002
750,1.01721,0.014542,0.0002537,-0.0002537
751,1.01813,0.0143943,0.0002704,-0.0002704
752,1.01905,0.0140111,0.000258,-0.000258
753,1.01997,0.014404600000000002,0.000257,-0.000257
754,1.02089,0.0145666,0.000253,-0.000253
755,1.02182,0.0140839,0.0002595,-0.0002595
756,1.02274,0.014836199999999999,0.0002649,-0.0002649
757,1.02366,0.014165200000000001,0.0002404,-0.0002404
758,1.02459,0.0143013,0.0002318,-0.0002318
759,1.02551,0.014394100000000002,0.0002536,-0.0002536
760,1.02643,0.0146085,0.0002547,-0.0002547
761,1.02736,0.014239,0.00022360000000000001,-0.00022360000000000001
762,1.02828,0.0140332,0.00023830000000000002,-0.00023830000000000002
763,1.0292,0.014648900000000001,0.0002538,-0.0002538
764,1.03013,0.0145606,0.00023830000000000002,-0.00023830000000000002
765,1.03105,0.0146952,0.0002759,-0.0002759
766,1.03198,0.014228000000000001,0.0002683,-0.0002683
767,1.0329,0.0145709,0.0002524,-0.0002524
768,1.03382,0.014116400000000001,0.0002488,-0.0002488
769,1.03475,0.014351000000000001,0.0002486,-0.0002486
770,1.03567,0.014196100000000001,0.0002353,-0.0002353
771,1.0366,0.0142304,0.0002493,-0.0002493
772,1.03752,0.0144256,0.0002549,-0.0002549
773,1.03845,0.014096200000000001,0.0002435,-0.0002435
774,1.03938,0.0149577,0.000247,-0.000247
775,1.0403,0.014617500000000002,0.0002455,-0.0002455
776,1.04123,0.0139232,0.0002458,-0.0002458
777,1.04215,0.014390799999999999,0.0002527,-0.0002527
778,1.04308,0.0138192,0.00022810000000000001,-0.00022810000000000001
779,1.04401,0.014539,0.0002483,-0.0002483
780,1.04493,0.0138551,0.000264,-0.000264
781,1.04586,0.0139655,0.000247,-0.000247
782,1.04679,0.014400999999999999,0.000247,-0.000247
783,1.04771,0.0143876,0.0002307,-0.0002307
784,1.04864,0.0141319,0.0002496,-0.0002496
785,1.04957,0.014231100000000002,0.00023810000000000001,-0.00023810000000000001
786,1.0505,0.0143218,0.0002249,-0.0002249
787,1.05142,0.0144759,0.00023590000000000001,-0.00023590000000000001
788,1.05235,0.0141729,0.0002512,-0.0002512
789,1.05328,0.0143427,0.0002538,-0.0002538
790,1.05421,0.0140934,0.0002309,-0.0002309
791,1.05514,0.014147000000000002,0.0002267,-0.0002267
792,1.05607,0.014197200000000002,0.0002434,-0.0002434
793,1.05699,0.0142499,0.00023970000000000003,-0.00023970000000000003
794,1.05792,0.0144458,0.000228,-0.000228
795,1.05885,0.013686,0.0002385,-0.0002385
796,1.05978,0.0144654,0.000237,-0.000237
797,1.06071,0.0140459,0.00024910000000000004,-0.00024910000000000004
798,1.06164,0.014195,0.0002503,-0.0002503
799,1.06257,0.0142796,0.0002288,-0.0002288
800,1.0635,0.0142963,0.0002226,-0.0002226
801,1.06443,0.013975900000000001,0.0002241,-0.0002241
802,1.06536,0.0142988,0.0002346,-0.0002346
803,1.06629,0.0138876,0.00023300000000000003,-0.00023300000000000003
804,1.06722,0.015064200000000002,0.0002301,-0.0002301
805,1.06815,0.014469000000000001,0.00023140000000000001,-0.00023140000000000001
806,1.06908,0.014229400000000001,0.00026179999999999997,-0.00026179999999999997
807,1.07001,0.0144803,0.0002442,-0.0002442
808,1.07095,0.013972400000000001,0.0002444,-0.0002444
809,1.07188,0.013787,0.0002475,-0.0002475
810,1.07281,0.014384,0.0002496,-0.0002496
811,1.07374,0.014807500000000001,0.00024,-0.00024
812,1.07467,0.014244099999999999,0.000241,-0.000241
813,1.0756,0.0140912,0.000254,-0.000254
814,1.07654,0.013991199999999999,0.00021659999999999998,-0.00021659999999999998
815,1.07747,0.014206000000000002,0.0002493,-0.0002493
816,1.0784,0.0144207,0.00023390000000000002,-0.00023390000000000002
817,1.07933,0.014377299999999999,0.000226,-0.000226
818,1.08027,0.014341999999999999,0.0002218,-0.0002218
819,1.0812,0.0148772,0.0002659,-0.0002659
820,1.08213,0.0142225,0.0002318,-0.0002318
821,1.08306,0.014426900000000001,0.0002174,-0.0002174
822,1.084,0.013821600000000002,0.00020650000000000003,-0.00020650000000000003
823,1.08493,0.0141119,0.0002476,-0.0002476
824,1.08587,0.0144325,0.00023830000000000002,-0.00023830000000000002
825,1.0868,0.0148283,0.0002412,-0.0002412
826,1.08773,0.0141146,0.0002332,-0.0002332
827,1.08867,0.0138486,0.00023040000000000002,-0.00023040000000000002
828,1.0896,0.0144414,0.00023730000000000002,-0.00023730000000000002
829,1.09054,0.0146207,0.0002496,-0.0002496
830,1.09147,0.014251400000000001,0.0002207,-0.0002207
831,1.0924,0.014849900000000001,0.0002239,-0.0002239
832,1.09334,0.0141256,0.00022360000000000001,-0.00022360000000000001
833,1.09427,0.0143617,0.000219,-0.000219
834,1.09521,0.014342500000000001,0.0002483,-0.0002483
835,1.09614,0.0142899,0.0002216,-0.0002216
836,1.09708,0.014870399999999999,0.0002484,-0.0002484
837,1.09802,0.013855200000000002,0.00023040000000000002,-0.00023040000000000002
838,1.09895,0.0147409,0.0002377,-0.0002377
839,1.09989,0.014085799999999999,0.0002401,-0.0002401
840,1.10082,0.014443999999999999,0.00023879999999999998,-0.00023879999999999998
841,1.10176,0.014445600000000001,0.0002457,-0.0002457
842,1.1027,0.014825900000000001,0.0002532,-0.0002532
843,1.10363,0.0139221,0.00023810000000000001,-0.00023810000000000001
844,1.10457,0.0146771,0.000245,-0.000245
845,1.10551,0.014202999999999999,0.000223,-0.000223
846,1.10644,0.014228099999999999,0.0002308,-0.0002308
847,1.10738,0.013980999999999999,0.00021610000000000002,-0.00021610000000000002
848,1.10832,0.014824500000000001,0.0002391,-0.0002391
849,1.10925,0.0141593,0.00023150000000000002,-0.00023150000000000002
850,1.11019,0.0143834,0.0002444,-0.0002444
851,1.11113,0.014500500000000001,0.00022769999999999998,-0.00022769999999999998
852,1.11207,0.0149908,0.0002527,-0.0002527
853,1.113,0.0143617,0.0002332,-0.0002332
854,1.11394,0.0146049,0.00024629999999999997,-0.00024629999999999997
855,1.11488,0.014133500000000002,0.00021850000000000003,-0.00021850000000000003
856,1.11582,0.014721200000000002,0.00024819999999999996,-0.00024819999999999996
857,1.11676,0.0147194,0.00021700000000000002,-0.00021700000000000002
858,1.1177,0.0140054,0.00023210000000000003,-0.00023210000000000003
859,1.11864,0.0146035,0.0002341,-0.0002341
860,1.11957,0.014379200000000002,0.00024870000000000003,-0.00024870000000000003
861,1.12051,0.014290700000000002,0.0002368,-0.0002368
862,1.12145,0.014280500000000002,0.00022429999999999998,-0.00022429999999999998
863,1.12239,0.014333700000000001,0.0002353,-0.0002353
864,1.12333,0.0149121,0.00023349999999999998,-0.00023349999999999998
865,1.12427,0.0148024,0.00024160000000000002,-0.00024160000000000002
866,1.12521,0.014205,0.0002267,-0.0002267
867,1.12615,0.014215400000000001,0.000226,-0.000226
868,1.12709,0.014389,0.00023550000000000003,-0.00023550000000000003
869,1.12803,0.0147563,0.00022290000000000002,-0.00022290000000000002
870,1.12897,0.0140771,0.00021420000000000003,-0.00021420000000000003
871,1.12991,0.013925700000000001,0.00022689999999999999,-0.00022689999999999999
872,1.13085,0.0142757,0.00024080000000000003,-0.00024080000000000003
873,1.13179,0.014577199999999998,0.0002384,-0.0002384
874,1.13273,0.0146564,0.0002188,-0.0002188
875,1.13367,0.014282900000000001,0.0002196,-0.0002196
876,1.13461,0.0144519,0.00024910000000000004,-0.00024910000000000004
877,1.13556,0.0141838,0.00022689999999999999,-0.00022689999999999999
878,1.1365,0.014406000000000002,0.000226,-0.000226
879,1.13744,0.014365000000000001,0.0002352,-0.0002352
880,1.13838,0.0145051,0.0002045,-0.0002045
881,1.13932,0.014423600000000002,0.0002493,-0.0002493
882,1.14026,0.0144402,0.0002423,-0.0002423
883,1.14121,0.014019600000000002,0.0001957,-0.0001957
884,1.14215,0.0140005,0.0002267,-0.0002267
885,1.14309,0.0150796,0.000215,-0.000215
886,1.14403,0.0143107,0.0002322,-0.0002322
887,1.14498,0.0144093,0.0002231,-0.0002231
888,1.14592,0.014276,0.00023640000000000003,-0.00023640000000000003
889,1.14686,0.014306600000000001,0.00022429999999999998,-0.00022429999999999998
890,1.1478,0.0144356,0.000229,-0.000229
891,1.14875,0.0139416,0.0002217,-0.0002217
892,1.14969,0.0145918,0.00023400000000000002,-0.00023400000000000002
893,1.15063,0.014405399999999999,0.0002279,-0.0002279
894,1.15158,0.014229400000000001,0.0002231,-0.0002231
895,1.15252,0.014317200000000002,0.00021669999999999998,-0.00021669999999999998
896,1.15346,0.014919700000000001,0.00023300000000000003,-0.00023300000000000003
897,1.15441,0.0145191,0.0002497,-0.0002497
898,1.15535,0.014639500000000001,0.0002488,-0.0002488
899,1.1563,0.0140249,0.00023040000000000002,-0.00023040000000000002
900,1.15724,0.014188300000000001,0.0002332,-0.0002332
901,1.15819,0.0140051,0.00023109999999999998,-0.00023109999999999998
902,1.15913,0.0146904,0.00022630000000000003,-0.00022630000000000003
903,1.16007,0.0141221,0.00023920000000000001,-0.00023920000000000001
904,1.16102,0.014306300000000001,0.0002375,-0.0002375
905,1.16196,0.0139151,0.0002307,-0.0002307
906,1.16291,0.0144086,0.0002217,-0.0002217
907,1.16385,0.0143611,0.0002368,-0.0002368
908,1.1648,0.014500200000000001,0.0002276,-0.0002276
909,1.16575,0.0149709,0.00022950000000000002,-0.00022950000000000002
910,1.16669,0.0142875,0.00024060000000000002,-0.00024060000000000002
911,1.16764,0.014176,0.0002303,-0.0002303
912,1.16858,0.0139872,0.00022530000000000003,-0.00022530000000000003
913,1.16953,0.014259200000000001,0.00024170000000000002,-0.00024170000000000002
914,1.17047,0.0139441,0.0002225,-0.0002225
915,1.17142,0.0142004,0.0002479,-0.0002479
916,1.17237,0.0142183,0.0002445,-0.0002445
917,1.17331,0.013858299999999999,0.00022820000000000002,-0.00022820000000000002
918,1.17426,0.0136223,0.00021600000000000002,-0.00021600000000000002
919,1.17521,0.014170100000000001,0.0002354,-0.0002354
920,1.17615,0.013868499999999999,0.0002451,-0.0002451
921,1.1771,0.0139347,0.00022950000000000002,-0.00022950000000000002
922,1.17805,0.0140225,0.0002115,-0.0002115
923,1.17899,0.013925000000000002,0.0002347,-0.0002347
924,1.17994,0.0140198,0.0002143,-0.0002143
925,1.18089,0.014217900000000002,0.00024430000000000003,-0.00024430000000000003
926,1.18184,0.014035,0.00022960000000000002,-0.00022960000000000002
927,1.18278,0.0142821,0.0002094,-0.0002094
928,1.18373,0.014333100000000001,0.00021999999999999998,-0.00021999999999999998
929,1.18468,0.013878,0.00022620000000000002,-0.00022620000000000002
930,1.18563,0.013499200000000001,0.000252,-0.000252
931,1.18658,0.0145679,0.0002213,-0.0002213
932,1.18752,0.0146213,0.0002474,-0.0002474
933,1.18847,0.0136435,0.0002138,-0.0002138
934,1.18942,0.014201600000000002,0.00023040000000000002,-0.00023040000000000002
935,1.19037,0.0140231,0.00023820000000000002,-0.00023820000000000002
936,1.19132,0.0143475,0.00023109999999999998,-0.00023109999999999998
937,1.19227,0.0143299,0.00024260000000000002,-0.00024260000000000002
938,1.19322,0.0143275,0.0002376,-0.0002376
939,1.19416,0.013526400000000001,0.0002209,-0.0002209
940,1.19511,0.0139153,0.0002147,-0.0002147
941,1.19606,0.0141399,0.0002353,-0.0002353
942,1.19701,0.0145457,0.0002249,-0.0002249
943,1.19796,0.014063699999999998,0.0002442,-0.0002442
944,1.19891,0.014391099999999999,0.0002352,-0.0002352
945,1.19986,0.014652799999999999,0.000225,-0.000225
946,1.20081,0.0142988,0.00021700000000000002,-0.00021700000000000002
947,1.20176,0.0140471,0.00021329999999999998,-0.00021329999999999998
948,1.20271,0.0143038,0.0002476,-0.0002476
949,1.20366,0.0140543,0.00022720000000000002,-0.00022720000000000002
950,1.20461,0.0143447,0.0002558,-0.0002558
951,1.20556,0.0143203,0.0002368,-0.0002368
952,1.20651,0.0141574,0.0002471,-0.0002471
953,1.20746,0.0143157,0.0002279,-0.0002279
954,1.20841,0.014097100000000001,0.0002264,-0.0002264
955,1.20937,0.0144516,0.0002332,-0.0002332
956,1.21032,0.0139878,0.000235,-0.000235
957,1.21127,0.0139987,0.0002326,-0.0002326
958,1.21222,0.0141609,0.0002461,-0.0002461
959,1.21317,0.0142766,0.0002365,-0.0002365
960,1.21412,0.0140202,0.0002101,-0.0002101
961,1.21507,0.0136687,0.0002087,-0.0002087
962,1.21603,0.0141002,0.00022030000000000002,-0.00022030000000000002
963,1.21698,0.014624600000000001,0.00023689999999999998,-0.00023689999999999998
964,1.21793,0.013849100000000001,0.0002256,-0.0002256
965,1.21888,0.014119699999999999,0.00022349999999999998,-0.00022349999999999998
966,1.21983,0.014761999999999999,0.00022239999999999998,-0.00022239999999999998
967,1.22079,0.0144016,0.00024670000000000003,-0.00024670000000000003
968,1.22174,0.0145078,0.00024160000000000002,-0.00024160000000000002
969,1.22269,0.0137459,0.00022380000000000002,-0.00022380000000000002
970,1.22364,0.014299500000000001,0.0002356,-0.0002356
971,1.2246,0.014303,0.000238,-0.000238
972,1.22555,0.014114100000000001,0.000228,-0.000228
973,1.2265,0.0147483,0.00024170000000000002,-0.00024170000000000002
974,1.22745,0.014821800000000001,0.00023300000000000003,-0.00023300000000000003
975,1.22841,0.0138949,0.00024819999999999996,-0.00024819999999999996
976,1.22936,0.013998,0.0002211,-0.0002211
977,1.23031,0.0143157,0.00024410000000000002,-0.00024410000000000002
978,1.23127,0.0143462,0.00020840000000000002,-0.00020840000000000002
979,1.23222,0.0136193,0.00023640000000000003,-0.00023640000000000003
980,1.23318,0.0138503,0.00021909999999999999,-0.00021909999999999999
981,1.23413,0.0144435,0.0002556,-0.0002556
982,1.23508,0.0147301,0.0002326,-0.0002326
983,1.23604,0.014104000000000002,0.0002283,-0.0002283
984,1.23699,0.0145997,0.0002192,-0.0002192
985,1.23795,0.013980300000000001,0.0002079,-0.0002079
986,1.2389,0.0147928,0.0002526,-0.0002526
987,1.23985,0.0143509,0.0002293,-0.0002293
988,1.24081,0.014468700000000001,0.0002307,-0.0002307
989,1.24176,0.0143476,0.0002298,-0.0002298
990,1.24272,0.0142424,0.0002299,-0.0002299
991,1.24367,0.0146699,0.00023,-0.00023
992,1.24463,0.014189499999999999,0.0002196,-0.0002196
993,1.24558,0.014979000000000001,0.0002523,-0.0002523
994,1.24654,0.0143642,0.0002402,-0.0002402
995,1.24749,0.014502200000000002,0.0002419,-0.0002419
996,1.24845,0.0145716,0.0002377,-0.0002377
997,1.2494,0.0143934,0.0002357,-0.0002357
998,1.25036,0.0138263,0.000238,-0.000238
999,1.25132,0.0141576,0.00024,-0.00024
1000,1.25227,0.0142241,0.0002549,-0.0002549
1001,1.25323,0.0142889,0.0002284,-0.0002284
1002,1.25418,0.0138907,0.00023140000000000001,-0.00023140000000000001
1003,1.25514,0.0139965,0.0002156,-0.0002156
1004,1.2561,0.0142011,0.0002378,-0.0002378
1005,1.25705,0.014405300000000001,0.00023300000000000003,-0.00023300000000000003
1006,1.25801,0.0139136,0.0002265,-0.0002265
1007,1.25896,0.0140011,0.00023380000000000002,-0.00023380000000000002
1008,1.25992,0.014276500000000001,0.0002391,-0.0002391
1009,1.26088,0.0140161,0.0002436,-0.0002436
1010,1.26183,0.014221999999999999,0.0002481,-0.0002481
1011,1.26279,0.0138422,0.0002254,-0.0002254
1012,1.26375,0.0144696,0.0002344,-0.0002344
1013,1.26471,0.0142691,0.0002299,-0.0002299
1014,1.26566,0.013917299999999999,0.00023060000000000002,-0.00023060000000000002
1015,1.26662,0.014054,0.0002222,-0.0002222
1016,1.26758,0.014100600000000001,0.0002255,-0.0002255
1017,1.26854,0.0141756,0.0002484,-0.0002484
1018,1.26949,0.0141562,0.0002278,-0.0002278
1019,1.27045,0.0141096,0.00022720000000000002,-0.00022720000000000002
1020,1.27141,0.014071700000000001,0.0002218,-0.0002218
1021,1.27237,0.0142615,0.0002004,-0.0002004
1022,1.27332,0.014028400000000002,0.000229,-0.000229
1023,1.27428,0.013995800000000001,0.0002444,-0.0002444
1024,1.27524,0.013932,0.00020820000000000002,-0.00020820000000000002
1025,1.2762,0.014617100000000001,0.00024080000000000003,-0.00024080000000000003
1026,1.27716,0.014393800000000002,0.00023550000000000003,-0.00023550000000000003
1027,1.27812,0.0138848,0.0002419,-0.0002419
1028,1.27907,0.0142691,0.0002527,-0.0002527
1029,1.28003,0.0146079,0.0002343,-0.0002343
1030,1.28099,0.0141661,0.0002376,-0.0002376
1031,1.28195,0.0141366,0.00021600000000000002,-0.00021600000000000002
1032,1.28291,0.014058200000000002,0.00023480000000000002,-0.00023480000000000002
1033,1.28387,0.0142872,0.0002343,-0.0002343
1034,1.28483,0.014050100000000001,0.00024029999999999999,-0.00024029999999999999
1035,1.28579,0.0146005,0.0002424,-0.0002424
1036,1.28675,0.014242300000000001,0.0002354,-0.0002354
1037,1.2877,0.0138429,0.0002275,-0.0002275
1038,1.28866,0.0146709,0.00023060000000000002,-0.00023060000000000002
1039,1.28962,0.0139123,0.00022470000000000001,-0.00022470000000000001
1040,1.29058,0.0141462,0.0002538,-0.0002538
1041,1.29154,0.0142273,0.00023930000000000002,-0.00023930000000000002
1042,1.2925,0.0141571,0.00022440000000000003,-0.00022440000000000003
1043,1.29346,0.0142451,0.0002328,-0.0002328
1044,1.29442,0.0143591,0.0002175,-0.0002175
1045,1.29538,0.0143606,0.00022290000000000002,-0.00022290000000000002
1046,1.29634,0.0139886,0.0002323,-0.0002323
1047,1.2973,0.014306399999999999,0.00021360000000000001,-0.00021360000000000001
1048,1.29826,0.0140183,0.0002597,-0.0002597
1049,1.29922,0.0139499,0.0002465,-0.0002465
1050,1.30019,0.014059299999999999,0.0002309,-0.0002309
1051,1.30115,0.013704400000000002,0.0002399,-0.0002399
1052,1.30211,0.014111499999999999,0.00022480000000000002,-0.00022480000000000002
1053,1.30307,0.0140976,0.0002436,-0.0002436
1054,1.30403,0.0138904,0.0002278,-0.0002278
1055,1.30499,0.0142927,0.0002226,-0.0002226
1056,1.30595,0.0141425,0.00022810000000000001,-0.00022810000000000001
1057,1.30691,0.014673799999999999,0.0002548,-0.0002548
1058,1.30787,0.014563699999999999,0.00023920000000000001,-0.00023920000000000001
1059,1.30883,0.0145327,0.000252,-0.000252
1060,1.3098,0.014491700000000001,0.0002361,-0.0002361
1061,1.31076,0.0139795,0.0002496,-0.0002496
1062,1.31172,0.014757300000000001,0.00023300000000000003,-0.00023300000000000003
1063,1.31268,0.0142502,0.0002581,-0.0002581
1064,1.31364,0.0141025,0.00022610000000000002,-0.00022610000000000002
1065,1.3146,0.014155599999999999,0.0002433,-0.0002433
1066,1.31557,0.014373700000000001,0.0002506,-0.0002506
1067,1.31653,0.013885000000000002,0.0002205,-0.0002205
1068,1.31749,0.0136748,0.0002303,-0.0002303
1069,1.31845,0.0139816,0.0001995,-0.0001995
1070,1.31942,0.0138247,0.0002424,-0.0002424
1071,1.32038,0.0142086,0.0002542,-0.0002542
1072,1.32134,0.0138079,0.0002246,-0.0002246
1073,1.3223,0.0142125,0.00023050000000000002,-0.00023050000000000002
1074,1.32327,0.014323500000000001,0.0002401,-0.0002401
1075,1.32423,0.0138507,0.0002391,-0.0002391
1076,1.32519,0.014234100000000001,0.00022950000000000002,-0.00022950000000000002
1077,1.32615,0.0142155,0.0002435,-0.0002435
1078,1.32712,0.0139455,0.0002334,-0.0002334
1079,1.32808,0.014199999999999999,0.000259,-0.000259
1080,1.32904,0.0146557,0.00026440000000000003,-0.00026440000000000003
1081,1.33001,0.014186,0.00022349999999999998,-0.00022349999999999998
1082,1.33097,0.014678100000000001,0.0002437,-0.0002437
1083,1.33193,0.0140455,0.00023380000000000002,-0.00023380000000000002
1084,1.3329,0.014406799999999999,0.0002241,-0.0002241
1085,1.33386,0.0147976,0.00023449999999999998,-0.00023449999999999998
1086,1.33482,0.0143205,0.0002497,-0.0002497
1087,1.33579,0.0144318,0.0002499,-0.0002499
1088,1.33675,0.014858800000000002,0.0002353,-0.0002353
1089,1.33772,0.0142814,0.0002557,-0.0002557
1090,1.33868,0.014128799999999999,0.00023050000000000002,-0.00023050000000000002
1091,1.33964,0.0142384,0.0002543,-0.0002543
1092,1.34061,0.0143266,0.00023300000000000003,-0.00023300000000000003
1093,1.34157,0.014716499999999999,0.0002299,-0.0002299
1094,1.34254,0.0151924,0.00024270000000000002,-0.00024270000000000002
1095,1.3435,0.0142542,0.0002454,-0.0002454
1096,1.34446,0.014395400000000001,0.00025069999999999997,-0.00025069999999999997
1097,1.34543,0.013914500000000002,0.000241,-0.000241
1098,1.34639,0.014481200000000001,0.0002614,-0.0002614
1099,1.34736,0.014979800000000001,0.00025309999999999997,-0.00025309999999999997
1100,1.34832,0.014951,0.0002539,-0.0002539
1101,1.34929,0.014782900000000002,0.00023830000000000002,-0.00023830000000000002
1102,1.35025,0.0145338,0.0002592,-0.0002592
1103,1.35122,0.0149833,0.00024670000000000003,-0.00024670000000000003
1104,1.35218,0.0146094,0.0002556,-0.0002556
1105,1.35315,0.015034400000000002,0.0002457,-0.0002457
1106,1.35411,0.014705600000000001,0.00024660000000000003,-0.00024660000000000003
1107,1.35508,0.0149288,0.00023930000000000002,-0.00023930000000000002
1108,1.35604,0.0150671,0.0002591,-0.0002591
1109,1.35701,0.014494100000000001,0.000239,-0.000239
1110,1.35798,0.014653000000000001,0.0002458,-0.0002458
1111,1.35894,0.0143268,0.00023879999999999998,-0.00023879999999999998
1112,1.35991,0.0150565,0.0002583,-0.0002583
1113,1.36087,0.0145874,0.0002521,-0.0002521
1114,1.36184,0.0141945,0.0002512,-0.0002512
1115,1.3628,0.0146747,0.0002298,-0.0002298
1116,1.36377,0.01529,0.0002562,-0.0002562
1117,1.36474,0.014750300000000001,0.00025100000000000003,-0.00025100000000000003
1118,1.3657,0.0149275,0.0002352,-0.0002352
1119,1.36667,0.0145736,0.00025309999999999997,-0.00025309999999999997
1120,1.36764,0.0147654,0.0002536,-0.0002536
1121,1.3686,0.014497800000000002,0.0002546,-0.0002546
1122,1.36957,0.0149251,0.0002485,-0.0002485
1123,1.37053,0.014171800000000002,0.0002469,-0.0002469
1124,1.3715,0.014439500000000001,0.00024910000000000004,-0.00024910000000000004
1125,1.37247,0.014678400000000001,0.00023820000000000002,-0.00023820000000000002
1126,1.37343,0.0143087,0.00026030000000000004,-0.00026030000000000004
1127,1.3744,0.0144529,0.00022769999999999998,-0.00022769999999999998
1128,1.37537,0.0150196,0.0002552,-0.0002552
1129,1.37634,0.015052300000000001,0.0002582,-0.0002582
1130,1.3773,0.0147131,0.00023980000000000003,-0.00023980000000000003
1131,1.37827,0.014475,0.00024639999999999997,-0.00024639999999999997
1132,1.37924,0.014923500000000001,0.00025790000000000003,-0.00025790000000000003
1133,1.3802,0.014393000000000001,0.0002425,-0.0002425
1134,1.38117,0.0141888,0.0002551,-0.0002551
1135,1.38214,0.015172699999999999,0.0002548,-0.0002548
1136,1.38311,0.0142817,0.0002504,-0.0002504
1137,1.38407,0.0146248,0.0002405,-0.0002405
1138,1.38504,0.014848,0.0002552,-0.0002552
1139,1.38601,0.0150051,0.00023019999999999998,-0.00023019999999999998
1140,1.38698,0.014967900000000001,0.0002331,-0.0002331
1141,1.38794,0.0149926,0.0002567,-0.0002567
1142,1.38891,0.0143443,0.0002562,-0.0002562
1143,1.38988,0.0143994,0.0002553,-0.0002553
1144,1.39085,0.0151405,0.0002439,-0.0002439
1145,1.39182,0.014048000000000001,0.0002616,-0.0002616
1146,1.39278,0.0145723,0.000248,-0.000248
1147,1.39375,0.0144572,0.00023810000000000001,-0.00023810000000000001
1148,1.39472,0.0139478,0.0002504,-0.0002504
1149,1.39569,0.0150562,0.0002703,-0.0002703
1150,1.39666,0.0143857,0.00025069999999999997,-0.00025069999999999997
1151,1.39763,0.014818,0.0002594,-0.0002594
1152,1.39859,0.0147335,0.00025340000000000003,-0.00025340000000000003
1153,1.39956,0.014232499999999999,0.0002453,-0.0002453
1154,1.40053,0.0143712,0.0002544,-0.0002544
1155,1.4015,0.0147596,0.0002657,-0.0002657
1156,1.40247,0.014641500000000002,0.00023490000000000002,-0.00023490000000000002
1157,1.40344,0.0151653,0.00026030000000000004,-0.00026030000000000004
1158,1.40441,0.0144886,0.0002793,-0.0002793
1159,1.40538,0.0140875,0.0002596,-0.0002596
1160,1.40635,0.0151386,0.00025749999999999997,-0.00025749999999999997
1161,1.40731,0.0145765,0.00026660000000000003,-0.00026660000000000003
1162,1.40828,0.0140035,0.00025540000000000003,-0.00025540000000000003
1163,1.40925,0.0149891,0.000266,-0.000266
1164,1.41022,0.0144025,0.0002727,-0.0002727
1165,1.41119,0.0148671,0.00026450000000000003,-0.00026450000000000003
1166,1.41216,0.0146203,0.0002544,-0.0002544
1167,1.41313,0.0148044,0.0002614,-0.0002614
1168,1.4141,0.0147793,0.0002509,-0.0002509
1169,1.41507,0.0143357,0.0002293,-0.0002293
1170,1.41604,0.014766699999999999,0.00025770000000000003,-0.00025770000000000003
1171,1.41701,0.0147782,0.0002425,-0.0002425
1172,1.41798,0.0147524,0.0002582,-0.0002582
1173,1.41895,0.0151762,0.0002396,-0.0002396
1174,1.41992,0.0139008,0.0002448,-0.0002448
1175,1.42089,0.014523900000000001,0.0002605,-0.0002605
1176,1.42186,0.0147398,0.0002515,-0.0002515
1177,1.42283,0.015244800000000001,0.0002617,-0.0002617
1178,1.4238,0.014682299999999999,0.00026660000000000003,-0.00026660000000000003
1179,1.42477,0.0149468,0.0002796,-0.0002796
1180,1.42574,0.0147113,0.000264,-0.000264
1181,1.42671,0.0146011,0.0002594,-0.0002594
1182,1.42768,0.0142684,0.0002669,-0.0002669
1183,1.42865,0.0144692,0.00025350000000000004,-0.00025350000000000004
1184,1.42962,0.0144417,0.0002901,-0.0002901
1185,1.43059,0.0145679,0.0002649,-0.0002649
1186,1.43156,0.0144576,0.0002682,-0.0002682
1187,1.43254,0.014804200000000002,0.00023400000000000002,-0.00023400000000000002
1188,1.43351,0.0150189,0.0002474,-0.0002474
1189,1.43448,0.014479599999999999,0.0002596,-0.0002596
1190,1.43545,0.014143300000000001,0.0002789,-0.0002789
1191,1.43642,0.014445300000000001,0.00028649999999999997,-0.00028649999999999997
1192,1.43739,0.0147729,0.0002558,-0.0002558
1193,1.43836,0.0144895,0.0002514,-0.0002514
1194,1.43933,0.014423900000000002,0.0002752,-0.0002752
1195,1.4403,0.0146711,0.00028000000000000003,-0.00028000000000000003
1196,1.44128,0.0141963,0.0002465,-0.0002465
1197,1.44225,0.014599200000000001,0.0002634,-0.0002634
1198,1.44322,0.014680899999999998,0.0002615,-0.0002615
1199,1.44419,0.015283199999999999,0.0002773,-0.0002773
1200,1.44516,0.014554800000000001,0.0002784,-0.0002784
1201,1.44613,0.014099,0.0002653,-0.0002653
1202,1.4471,0.0139693,0.0002637,-0.0002637
1203,1.44808,0.0146686,0.0002804,-0.0002804
1204,1.44905,0.013939,0.00026179999999999997,-0.00026179999999999997
1205,1.45002,0.0145889,0.0002957,-0.0002957
1206,1.45099,0.014174500000000001,0.0002586,-0.0002586
1207,1.45196,0.014444600000000002,0.000235,-0.000235
1208,1.45294,0.0142764,0.00026440000000000003,-0.00026440000000000003
1209,1.45391,0.014256200000000002,0.00028490000000000004,-0.00028490000000000004
1210,1.45488,0.014533,0.0002764,-0.0002764
1211,1.45585,0.0143505,0.0002583,-0.0002583
1212,1.45682,0.014133500000000002,0.00026020000000000004,-0.00026020000000000004
1213,1.4578,0.014779899999999999,0.0002331,-0.0002331
1214,1.45877,0.0138723,0.0002521,-0.0002521
1215,1.45974,0.0149692,0.0002564,-0.0002564
1216,1.46071,0.0144152,0.0002728,-0.0002728
1217,1.46169,0.0144312,0.00025540000000000003,-0.00025540000000000003
1218,1.46266,0.014034500000000002,0.0002898,-0.0002898
1219,1.46363,0.0142828,0.0002847,-0.0002847
1220,1.4646,0.0146077,0.0002751,-0.0002751
1221,1.46558,0.0140304,0.0002501,-0.0002501
1222,1.46655,0.014248499999999999,0.0002655,-0.0002655
1223,1.46752,0.0140729,0.00025100000000000003,-0.00025100000000000003
1224,1.4685,0.014846900000000001,0.0002454,-0.0002454
1225,1.46947,0.0143933,0.000259,-0.000259
1226,1.47044,0.0143882,0.00025309999999999997,-0.00025309999999999997
1227,1.47141,0.014894300000000001,0.0002817,-0.0002817
1228,1.47239,0.014574,0.0002654,-0.0002654
1229,1.47336,0.0139685,0.0002731,-0.0002731
1230,1.47433,0.0138595,0.000276,-0.000276
1231,1.47531,0.0149166,0.0002586,-0.0002586
1232,1.47628,0.0137961,0.0002516,-0.0002516
1233,1.47725,0.014646900000000001,0.0002945,-0.0002945
1234,1.47823,0.014672600000000001,0.0002649,-0.0002649
1235,1.4792,0.014740200000000002,0.0002591,-0.0002591
1236,1.48017,0.0142377,0.00024870000000000003,-0.00024870000000000003
1237,1.48115,0.0138297,0.0002888,-0.0002888
1238,1.48212,0.015073399999999999,0.000277,-0.000277
1239,1.4831,0.0139386,0.0002542,-0.0002542
1240,1.48407,0.0146298,0.0002976,-0.0002976
1241,1.48504,0.014253100000000001,0.0002789,-0.0002789
1242,1.48602,0.014013,0.00029319999999999997,-0.00029319999999999997
1243,1.48699,0.0149468,0.0002895,-0.0002895
1244,1.48796,0.0146362,0.0002894,-0.0002894
1245,1.48894,0.014729,0.0002749,-0.0002749
1246,1.48991,0.014572400000000001,0.0002906,-0.0002906
1247,1.49089,0.0150807,0.0002663,-0.0002663
1248,1.49186,0.0146363,0.0002594,-0.0002594
1249,1.49283,0.014309700000000002,0.00025600000000000004,-0.00025600000000000004
1250,1.49381,0.0150632,0.0003103,-0.0003103
1251,1.49478,0.0143239,0.0002568,-0.0002568
1252,1.49576,0.014636499999999998,0.0002546,-0.0002546
1253,1.49673,0.0146024,0.0002807,-0.0002807
1254,1.49771,0.0146312,0.0002734,-0.0002734
1255,1.49868,0.0140339,0.0002742,-0.0002742
1256,1.49966,0.014089,0.0002855,-0.0002855
1257,1.50063,0.0146712,0.0002734,-0.0002734
1258,1.5016,0.0142366,0.00027,-0.00027
1259,1.50258,0.0141024,0.0002908,-0.0002908
1260,1.50355,0.014746500000000001,0.00030450000000000003,-0.00030450000000000003
1261,1.50453,0.014283500000000001,0.000297,-0.000297
1262,1.5055,0.0147147,0.0002977,-0.0002977
1263,1.50648,0.0147636,0.0002933,-0.0002933
1264,1.50745,0.014303699999999999,0.0003001,-0.0003001
1265,1.50843,0.0145737,0.00030040000000000004,-0.00030040000000000004
1266,1.5094,0.014593100000000001,0.00026710000000000004,-0.00026710000000000004
1267,1.51038,0.014147000000000002,0.00026950000000000005,-0.00026950000000000005
1268,1.51135,0.0142269,0.0002709,-0.0002709
1269,1.51233,0.014153500000000001,0.0002737,-0.0002737
1270,1.5133,0.0148018,0.0002839,-0.0002839
1271,1.51428,0.014606300000000001,0.0002592,-0.0002592
1272,1.51525,0.0141681,0.0002908,-0.0002908
1273,1.51623,0.014589900000000001,0.00028060000000000004,-0.00028060000000000004
1274,1.5172,0.0136923,0.0002787,-0.0002787
1275,1.51818,0.0142969,0.000252,-0.000252
1276,1.51916,0.014502500000000002,0.00027,-0.00027
1277,1.52013,0.015129900000000002,0.0002903,-0.0002903
1278,1.52111,0.014577,0.0002856,-0.0002856
1279,1.52208,0.013865700000000002,0.00028010000000000003,-0.00028010000000000003
1280,1.52306,0.0140139,0.000279,-0.000279
1281,1.52403,0.014111,0.0002841,-0.0002841
1282,1.52501,0.0146959,0.00028490000000000004,-0.00028490000000000004
1283,1.52598,0.014006300000000001,0.000242,-0.000242
1284,1.52696,0.014705999999999999,0.0003017,-0.0003017
1285,1.52794,0.014561200000000002,0.0002976,-0.0002976
1286,1.52891,0.0148528,0.0003076,-0.0003076
1287,1.52989,0.0143934,0.0002631,-0.0002631
1288,1.53086,0.0143675,0.0002523,-0.0002523
1289,1.53184,0.014112800000000002,0.0002771,-0.0002771
1290,1.53282,0.0137968,0.00028740000000000005,-0.00028740000000000005
1291,1.53379,0.0154077,0.000308,-0.000308
1292,1.53477,0.0144342,0.0003058,-0.0003058
1293,1.53574,0.014422200000000001,0.0002943,-0.0002943
1294,1.53672,0.014174500000000001,0.0002763,-0.0002763
1295,1.5377,0.0142808,0.0002789,-0.0002789
1296,1.53867,0.0138797,0.0003035,-0.0003035
1297,1.53965,0.014022600000000001,0.0002718,-0.0002718
1298,1.54063,0.0137825,0.000278,-0.000278
1299,1.5416,0.0143479,0.0002629,-0.0002629
1300,1.54258,0.0140781,0.0002318,-0.0002318
1301,1.54355,0.0139375,0.00027529999999999997,-0.00027529999999999997
1302,1.54453,0.0142072,0.000292,-0.000292
1303,1.54551,0.0142436,0.0002826,-0.0002826
1304,1.54648,0.0138565,0.0002759,-0.0002759
1305,1.54746,0.014525099999999999,0.0002999,-0.0002999
1306,1.54844,0.014935400000000001,0.0002955,-0.0002955
1307,1.54941,0.0146763,0.00031620000000000004,-0.00031620000000000004
1308,1.55039,0.0143782,0.0002947,-0.0002947
1309,1.55137,0.0147425,0.00030910000000000003,-0.00030910000000000003
1310,1.55234,0.0137886,0.00028230000000000003,-0.00028230000000000003
1311,1.55332,0.013852,0.0002826,-0.0002826
1312,1.5543,0.0139716,0.00029790000000000003,-0.00029790000000000003
1313,1.55528,0.0137129,0.0003039,-0.0003039
1314,1.55625,0.0141862,0.0002859,-0.0002859
1315,1.55723,0.0151233,0.000288,-0.000288
1316,1.55821,0.0148526,0.0003036,-0.0003036
1317,1.55918,0.01436,0.0003018,-0.0003018
1318,1.56016,0.014624999999999999,0.000306,-0.000306
1319,1.56114,0.014081600000000001,0.0002722,-0.0002722
1320,1.56212,0.0137317,0.0003143,-0.0003143
1321,1.56309,0.0140929,0.0002925,-0.0002925
1322,1.56407,0.0139004,0.0002886,-0.0002886
1323,1.56505,0.014192100000000001,0.0002808,-0.0002808
1324,1.56602,0.0140222,0.0002743,-0.0002743
1325,1.567,0.0147037,0.0002778,-0.0002778
1326,1.56798,0.014193800000000001,0.00028740000000000005,-0.00028740000000000005
1327,1.56896,0.0139905,0.0002838,-0.0002838
1328,1.56993,0.0138608,0.0002921,-0.0002921
1329,1.57091,0.0142384,0.000292,-0.000292
1330,1.57189,0.0140059,0.0002907,-0.0002907
1331,1.57287,0.014408,0.0003079,-0.0003079
1332,1.57384,0.0140787,0.0002919,-0.0002919
1333,1.57482,0.014491400000000002,0.000292,-0.000292
1334,1.5758,0.0137242,0.0003167,-0.0003167
1335,1.57678,0.0136138,0.00030230000000000003,-0.00030230000000000003
1336,1.57776,0.0148863,0.00029,-0.00029
1337,1.57873,0.0140161,0.00028680000000000003,-0.00028680000000000003
1338,1.57971,0.014537,0.0003069,-0.0003069
1339,1.58069,0.0147641,0.0002984,-0.0002984
1340,1.58167,0.013866000000000002,0.0002925,-0.0002925
1341,1.58265,0.01421,0.0002855,-0.0002855
1342,1.58362,0.0144954,0.00032800000000000006,-0.00032800000000000006
1343,1.5846,0.014408,0.0002885,-0.0002885
1344,1.58558,0.0139519,0.0002841,-0.0002841
1345,1.58656,0.0142452,0.0002703,-0.0002703
1346,1.58754,0.013732500000000002,0.0002908,-0.0002908
1347,1.58851,0.0139859,0.0003206,-0.0003206
1348,1.58949,0.014079600000000001,0.00031390000000000004,-0.00031390000000000004
1349,1.59047,0.0140871,0.00030710000000000004,-0.00030710000000000004
1350,1.59145,0.0137144,0.0002771,-0.0002771
1351,1.59243,0.0144244,0.000295,-0.000295
1352,1.59341,0.0145958,0.00026460000000000003,-0.00026460000000000003
1353,1.59438,0.0143087,0.00030460000000000003,-0.00030460000000000003
1354,1.59536,0.014058600000000001,0.0003297,-0.0003297
1355,1.59634,0.014052100000000001,0.0003158,-0.0003158
1356,1.59732,0.013908799999999999,0.0003081,-0.0003081
1357,1.5983,0.013887700000000001,0.00030040000000000004,-0.00030040000000000004
1358,1.59928,0.014593,0.000265,-0.000265
1359,1.60025,0.014423900000000002,0.0003101,-0.0003101
1360,1.60123,0.013707800000000001,0.0003239,-0.0003239
1361,1.60221,0.014339900000000001,0.0002681,-0.0002681
1362,1.60319,0.0148065,0.0002664,-0.0002664
1363,1.60417,0.014873400000000002,0.0002838,-0.0002838
1364,1.60515,0.0146088,0.0002963,-0.0002963
1365,1.60613,0.0138822,0.00028660000000000003,-0.00028660000000000003
1366,1.60711,0.0138703,0.00031690000000000006,-0.00031690000000000006
1367,1.60808,0.014112800000000002,0.0002881,-0.0002881
1368,1.60906,0.014864500000000001,0.0002995,-0.0002995
1369,1.61004,0.0149513,0.0003031,-0.0003031
1370,1.61102,0.0137129,0.0003,-0.0003
1371,1.612,0.0142401,0.0003013,-0.0003013
1372,1.61298,0.0143777,0.00027969999999999997,-0.00027969999999999997
1373,1.61396,0.014642500000000001,0.0003008,-0.0003008
1374,1.61494,0.0146716,0.0003175,-0.0003175
1375,1.61592,0.013840600000000002,0.0003006,-0.0003006
1376,1.61689,0.0142143,0.0003204,-0.0003204
1377,1.61787,0.0141606,0.0003191,-0.0003191
1378,1.61885,0.014842800000000001,0.0003105,-0.0003105
1379,1.61983,0.0153182,0.0003098,-0.0003098
1380,1.62081,0.0142469,0.0003109,-0.0003109
1381,1.62179,0.0140046,0.00031350000000000003,-0.00031350000000000003
1382,1.62277,0.0139856,0.0002913,-0.0002913
1383,1.62375,0.0142519,0.0003145,-0.0003145
1384,1.62473,0.0146102,0.0003041,-0.0003041
1385,1.62571,0.013427,0.00033230000000000005,-0.00033230000000000005
1386,1.62669,0.0139844,0.0003229,-0.0003229
1387,1.62767,0.0146556,0.0003327,-0.0003327
1388,1.62865,0.013686700000000001,0.0003029,-0.0003029
1389,1.62963,0.0141446,0.00032460000000000003,-0.00032460000000000003
1390,1.63061,0.014343999999999999,0.0003027,-0.0003027
1391,1.63158,0.013995599999999999,0.000324,-0.000324
1392,1.63256,0.0141045,0.000308,-0.000308
1393,1.63354,0.0140088,0.00033130000000000003,-0.00033130000000000003
1394,1.63452,0.0138354,0.0002863,-0.0002863
1395,1.6355,0.0135612,0.0003075,-0.0003075
1396,1.63648,0.014080200000000001,0.0003148,-0.0003148
1397,1.63746,0.0137775,0.0003191,-0.0003191
1398,1.63844,0.014278500000000001,0.0003105,-0.0003105
1399,1.63942,0.014377599999999999,0.0003165,-0.0003165
1400,1.6404,0.0139883,0.0003264,-0.0003264
1401,1.64138,0.014509399999999999,0.00030710000000000004,-0.00030710000000000004
1402,1.64236,0.0142109,0.0003084,-0.0003084
1403,1.64334,0.0141358,0.0003201,-0.0003201
1404,1.64432,0.0148063,0.0003332,-0.0003332
1405,1.6453,0.014086000000000001,0.0003315,-0.0003315
1406,1.64628,0.0140815,0.000339,-0.000339
1407,1.64726,0.0139987,0.0003381,-0.0003381
1408,1.64824,0.0142767,0.00032980000000000005,-0.00032980000000000005
1409,1.64922,0.013394600000000001,0.000333,-0.000333
1410,1.6502,0.014280500000000002,0.0003152,-0.0003152
1411,1.65118,0.013952800000000001,0.0003085,-0.0003085
1412,1.65216,0.014893700000000001,0.0003494,-0.0003494
1413,1.65314,0.0138679,0.00033660000000000005,-0.00033660000000000005
1414,1.65412,0.0135015,0.00033230000000000005,-0.00033230000000000005
1415,1.6551,0.013902399999999999,0.00034090000000000005,-0.00034090000000000005
1416,1.65608,0.0143429,0.0003156,-0.0003156
1417,1.65706,0.014271400000000002,0.0003311,-0.0003311
1418,1.65804,0.0143426,0.000294,-0.000294
1419,1.65902,0.0132141,0.000321,-0.000321
1420,1.66,0.013910800000000001,0.00031440000000000005,-0.00031440000000000005
1421,1.66098,0.014064700000000001,0.0003177,-0.0003177
1422,1.66196,0.0142082,0.0003304,-0.0003304
1423,1.66294,0.0140597,0.0002857,-0.0002857
1424,1.66392,0.0144883,0.00032070000000000004,-0.00032070000000000004
1425,1.6649,0.0143402,0.0003184,-0.0003184
1426,1.66588,0.014268099999999999,0.0003335,-0.0003335
1427,1.66686,0.0136937,0.00029,-0.00029
1428,1.66784,0.0137804,0.0003083,-0.0003083
1429,1.66882,0.014134500000000001,0.0003178,-0.0003178
1430,1.66981,0.0138509,0.00030859999999999997,-0.00030859999999999997
1431,1.67079,0.014229499999999999,0.0003411,-0.0003411
1432,1.67177,0.0140343,0.0003466,-0.0003466
1433,1.67275,0.013965000000000002,0.0003165,-0.0003165
1434,1.67373,0.0132809,0.0003264,-0.0003264
1435,1.67471,0.014266000000000001,0.0003258,-0.0003258
1436,1.67569,0.013504799999999999,0.00034020000000000003,-0.00034020000000000003
1437,1.67667,0.0145269,0.00033590000000000003,-0.00033590000000000003
1438,1.67765,0.014094,0.0003657,-0.0003657
1439,1.67863,0.014927,0.00036470000000000003,-0.00036470000000000003
1440,1.67961,0.0132738,0.00031820000000000004,-0.00031820000000000004
1441,1.68059,0.014267000000000002,0.0003413,-0.0003413
1442,1.68157,0.013878,0.0003216,-0.0003216
1443,1.68255,0.014286000000000002,0.0003168,-0.0003168
1444,1.68353,0.0139566,0.000308,-0.000308
1445,1.68451,0.0139422,0.0003304,-0.0003304
1446,1.6855,0.014028400000000002,0.0003068,-0.0003068
1447,1.68648,0.0143579,0.00033529999999999996,-0.00033529999999999996
1448,1.68746,0.014565999999999999,0.0002999,-0.0002999
1449,1.68844,0.0134849,0.0003055,-0.0003055
1450,1.68942,0.0142408,0.0003498,-0.0003498
1451,1.6904,0.013961,0.000321,-0.000321
1452,1.69138,0.0145736,0.000334,-0.000334
1453,1.69236,0.014035200000000001,0.0003258,-0.0003258
1454,1.69334,0.014207000000000001,0.00035319999999999997,-0.00035319999999999997
1455,1.69432,0.0134343,0.0003294,-0.0003294
1456,1.69531,0.013236300000000001,0.00033329999999999997,-0.00033329999999999997
1457,1.69629,0.0141817,0.00032849999999999996,-0.00032849999999999996
1458,1.69727,0.0139714,0.00034720000000000004,-0.00034720000000000004
1459,1.69825,0.014503600000000002,0.0003479,-0.0003479
1460,1.69923,0.0140153,0.0002944,-0.0002944
1461,1.70021,0.013944600000000001,0.0003479,-0.0003479
1462,1.70119,0.0142061,0.0003474,-0.0003474
1463,1.70217,0.0144377,0.0003327,-0.0003327
1464,1.70315,0.0137635,0.000338,-0.000338
1465,1.70414,0.0142671,0.0003305,-0.0003305
1466,1.70512,0.013852,0.0003335,-0.0003335
1467,1.7061,0.0139441,0.0003288,-0.0003288
1468,1.70708,0.0135008,0.0003283,-0.0003283
1469,1.70806,0.014374,0.00032960000000000004,-0.00032960000000000004
1470,1.70904,0.014318599999999999,0.0003572,-0.0003572
1471,1.71002,0.0144723,0.00036790000000000005,-0.00036790000000000005
1472,1.711,0.013578,0.00036179999999999996,-0.00036179999999999996
1473,1.71199,0.0143175,0.0003519,-0.0003519
1474,1.71297,0.014045000000000002,0.0003294,-0.0003294
1475,1.71395,0.0146327,0.0003107,-0.0003107
1476,1.71493,0.0144971,0.0003483,-0.0003483
1477,1.71591,0.014478,0.00034240000000000003,-0.00034240000000000003
1478,1.71689,0.013505799999999998,0.0003365,-0.0003365
1479,1.71787,0.014798,0.0003247,-0.0003247
1480,1.71886,0.0145983,0.000349,-0.000349
1481,1.71984,0.014103300000000001,0.00034700000000000003,-0.00034700000000000003
1482,1.72082,0.0141214,0.00033,-0.00033
1483,1.7218,0.0145395,0.0003483,-0.0003483
1484,1.72278,0.0143443,0.0003395,-0.0003395
1485,1.72376,0.0137862,0.000358,-0.000358
1486,1.72474,0.014440999999999999,0.0003569,-0.0003569
1487,1.72573,0.0140661,0.00036790000000000005,-0.00036790000000000005
1488,1.72671,0.0149626,0.00036060000000000004,-0.00036060000000000004
1489,1.72769,0.014817400000000001,0.00034750000000000004,-0.00034750000000000004
1490,1.72867,0.0140113,0.0003912,-0.0003912
1491,1.72965,0.014189400000000001,0.00035499999999999996,-0.00035499999999999996
1492,1.73063,0.014259200000000001,0.000344,-0.000344
1493,1.73162,0.0146518,0.0003127,-0.0003127
1494,1.7326,0.014869000000000002,0.00035810000000000003,-0.00035810000000000003
1495,1.73358,0.014335500000000001,0.0003739,-0.0003739
1496,1.73456,0.0142453,0.0003591,-0.0003591
1497,1.73554,0.0141593,0.0003757,-0.0003757
1498,1.73652,0.014987600000000002,0.0004025,-0.0004025
1499,1.73751,0.0145007,0.0003576,-0.0003576
1500,1.73849,0.014181200000000001,0.0003769,-0.0003769
1501,1.73947,0.015056700000000001,0.0003609,-0.0003609
1502,1.74045,0.0140151,0.0003617,-0.0003617
1503,1.74143,0.0135625,0.0003377,-0.0003377
1504,1.74242,0.015470600000000001,0.00034009999999999997,-0.00034009999999999997
1505,1.7434,0.014562900000000002,0.0003552,-0.0003552
1506,1.74438,0.014286000000000002,0.00035000000000000005,-0.00035000000000000005
1507,1.74536,0.0135055,0.0003677,-0.0003677
1508,1.74634,0.0134315,0.0003627,-0.0003627
1509,1.74732,0.0144844,0.00036020000000000003,-0.00036020000000000003
1510,1.74831,0.0147825,0.00035249999999999995,-0.00035249999999999995
1511,1.74929,0.014025700000000002,0.00036690000000000003,-0.00036690000000000003
1512,1.75027,0.014098200000000002,0.0003594,-0.0003594
1513,1.75125,0.0141027,0.0003385,-0.0003385
1514,1.75223,0.0142582,0.0003578,-0.0003578
1515,1.75322,0.0148909,0.00036020000000000003,-0.00036020000000000003
1516,1.7542,0.0143641,0.0003446,-0.0003446
1517,1.75518,0.0141124,0.00036540000000000005,-0.00036540000000000005
1518,1.75616,0.0141879,0.0003673,-0.0003673
1519,1.75714,0.0139479,0.00037670000000000005,-0.00037670000000000005
1520,1.75813,0.0146641,0.00033230000000000005,-0.00033230000000000005
1521,1.75911,0.013493,0.00038580000000000005,-0.00038580000000000005
1522,1.76009,0.0142943,0.0003741,-0.0003741
1523,1.76107,0.0142211,0.0003628,-0.0003628
1524,1.76205,0.013254300000000002,0.0003775,-0.0003775
1525,1.76304,0.013948499999999999,0.0003713,-0.0003713
1526,1.76402,0.014007499999999999,0.0003774,-0.0003774
1527,1.765,0.014792099999999999,0.00038330000000000005,-0.00038330000000000005
1528,1.76598,0.013571200000000002,0.00040480000000000003,-0.00040480000000000003
1529,1.76697,0.014320600000000001,0.000362,-0.000362
1530,1.76795,0.0141355,0.000397,-0.000397
1531,1.76893,0.0148987,0.0003953,-0.0003953
1532,1.76991,0.014194400000000001,0.0004045,-0.0004045
1533,1.77089,0.0141024,0.00038449999999999997,-0.00038449999999999997
1534,1.77188,0.0142053,0.0003855,-0.0003855
1535,1.77286,0.0149376,0.000399,-0.000399
1536,1.77384,0.013725099999999999,0.00037830000000000003,-0.00037830000000000003
1537,1.77482,0.014363500000000001,0.000365,-0.000365
1538,1.77581,0.014248700000000001,0.0003723,-0.0003723
1539,1.77679,0.0150304,0.0003874,-0.0003874
1540,1.77777,0.015020100000000002,0.0003947,-0.0003947
1541,1.77875,0.0139227,0.0003352,-0.0003352
1542,1.77973,0.014512400000000002,0.00039440000000000005,-0.00039440000000000005
1543,1.78072,0.0141358,0.000368,-0.000368
1544,1.7817,0.0146152,0.00038980000000000004,-0.00038980000000000004
1545,1.78268,0.0143681,0.00038019999999999997,-0.00038019999999999997
1546,1.78366,0.013510500000000002,0.0003616,-0.0003616
1547,1.78465,0.013769100000000001,0.0003589,-0.0003589
1548,1.78563,0.0155348,0.0004046,-0.0004046
1549,1.78661,0.014292000000000001,0.0003705,-0.0003705
1550,1.78759,0.0137523,0.00037089999999999996,-0.00037089999999999996
1551,1.78858,0.0147031,0.00036040000000000003,-0.00036040000000000003
1552,1.78956,0.015119100000000002,0.0003732,-0.0003732
1553,1.79054,0.0140363,0.000334,-0.000334
1554,1.79152,0.0150528,0.000377,-0.000377
1555,1.79251,0.013276399999999999,0.00038879999999999996,-0.00038879999999999996
1556,1.79349,0.013759300000000002,0.0003778,-0.0003778
1557,1.79447,0.0148238,0.0003755,-0.0003755
1558,1.79545,0.0144937,0.000391,-0.000391
1559,1.79644,0.0143344,0.00042310000000000004,-0.00042310000000000004
1560,1.79742,0.0148724,0.0003996,-0.0003996
1561,1.7984,0.0140981,0.0003945,-0.0003945
1562,1.79938,0.0148148,0.00041980000000000007,-0.00041980000000000007
1563,1.80037,0.0140292,0.0003469,-0.0003469
1564,1.80135,0.0146054,0.0004008,-0.0004008
1565,1.80233,0.0146595,0.0003675,-0.0003675
1566,1.80331,0.0146032,0.00036679999999999997,-0.00036679999999999997
1567,1.8043,0.014282,0.00038960000000000004,-0.00038960000000000004
1568,1.80528,0.014096599999999999,0.0004101,-0.0004101
1569,1.80626,0.014117500000000002,0.0004265,-0.0004265
1570,1.80724,0.013751800000000002,0.0003929,-0.0003929
1571,1.80823,0.0147085,0.0003368,-0.0003368
1572,1.80921,0.013994800000000002,0.00037789999999999997,-0.00037789999999999997
1573,1.81019,0.014376700000000001,0.00039190000000000004,-0.00039190000000000004
1574,1.81117,0.0142847,0.000393,-0.000393
1575,1.81216,0.0134503,0.00034070000000000004,-0.00034070000000000004
1576,1.81314,0.015179,0.0004003,-0.0004003
1577,1.81412,0.014198599999999999,0.0003775,-0.0003775
1578,1.81511,0.013207100000000001,0.0003927,-0.0003927
1579,1.81609,0.014046900000000001,0.00040820000000000006,-0.00040820000000000006
1580,1.81707,0.0151606,0.00038960000000000004,-0.00038960000000000004
1581,1.81805,0.0148682,0.0003955,-0.0003955
1582,1.81904,0.0147508,0.0003842,-0.0003842
1583,1.82002,0.0148203,0.00038080000000000004,-0.00038080000000000004
1584,1.821,0.0146807,0.0003771,-0.0003771
1585,1.82198,0.013796500000000001,0.00041549999999999996,-0.00041549999999999996
1586,1.82297,0.0143181,0.0004,-0.0004
1587,1.82395,0.0156619,0.0004088,-0.0004088
1588,1.82493,0.0146915,0.0004016,-0.0004016
1589,1.82592,0.0148524,0.00038600000000000006,-0.00038600000000000006
1590,1.8269,0.0136887,0.00040869999999999996,-0.00040869999999999996
1591,1.82788,0.0140941,0.0004409,-0.0004409
1592,1.82886,0.0156462,0.0004364,-0.0004364
1593,1.82985,0.0146167,0.000385,-0.000385
1594,1.83083,0.0143606,0.00038300000000000004,-0.00038300000000000004
1595,1.83181,0.0152704,0.0004045,-0.0004045
1596,1.8328,0.0150118,0.00038710000000000003,-0.00038710000000000003
1597,1.83378,0.0150528,0.00041000000000000005,-0.00041000000000000005
1598,1.83476,0.0150828,0.0003866,-0.0003866
1599,1.83574,0.014479599999999999,0.00040280000000000003,-0.00040280000000000003
1600,1.83673,0.0147251,0.0003891,-0.0003891
1601,1.83771,0.0142881,0.0004189,-0.0004189
1602,1.83869,0.0137156,0.0003875,-0.0003875
1603,1.83968,0.0142801,0.0004301,-0.0004301
1604,1.84066,0.0142204,0.0004263,-0.0004263
1605,1.84164,0.013877200000000001,0.0004111,-0.0004111
1606,1.84262,0.014425200000000001,0.0004288,-0.0004288
1607,1.84361,0.014337800000000001,0.0004167,-0.0004167
1608,1.84459,0.014177,0.00041549999999999996,-0.00041549999999999996
1609,1.84557,0.013828400000000001,0.0004047,-0.0004047
1610,1.84656,0.015344,0.0004614,-0.0004614
1611,1.84754,0.0146482,0.0004423,-0.0004423
1612,1.84852,0.0157021,0.0004341,-0.0004341
1613,1.8495,0.0141698,0.000428,-0.000428
1614,1.85049,0.014914700000000001,0.0004362,-0.0004362
1615,1.85147,0.013892100000000001,0.00040919999999999997,-0.00040919999999999997
1616,1.85245,0.014664,0.00042290000000000003,-0.00042290000000000003
1617,1.85344,0.0150857,0.00039390000000000003,-0.00039390000000000003
1618,1.85442,0.0147197,0.00045740000000000006,-0.00045740000000000006
1619,1.8554,0.014923,0.00040869999999999996,-0.00040869999999999996
1620,1.85639,0.0146982,0.0003893,-0.0003893
1621,1.85737,0.015269699999999999,0.0004404,-0.0004404
1622,1.85835,0.013959,0.0003862,-0.0003862
1623,1.85933,0.014294000000000001,0.00038350000000000005,-0.00038350000000000005
1624,1.86032,0.014341999999999999,0.00043139999999999997,-0.00043139999999999997
1625,1.8613,0.014134,0.0003966,-0.0003966
1626,1.86228,0.014044700000000002,0.00042320000000000004,-0.00042320000000000004
1627,1.86327,0.0149319,0.00045440000000000004,-0.00045440000000000004
1628,1.86425,0.0140235,0.0004127,-0.0004127
1629,1.86523,0.0139861,0.0004174,-0.0004174
1630,1.86622,0.014512400000000002,0.0004049,-0.0004049
1631,1.8672,0.0154331,0.0004566,-0.0004566
1632,1.86818,0.013465000000000001,0.00045060000000000006,-0.00045060000000000006
1633,1.86916,0.0145718,0.0004305,-0.0004305
1634,1.87015,0.0141916,0.0004256,-0.0004256
1635,1.87113,0.0145335,0.0004301,-0.0004301
1636,1.87211,0.014479900000000002,0.0004038,-0.0004038
1637,1.8731,0.0139879,0.0004366,-0.0004366
1638,1.87408,0.013911199999999999,0.0004122,-0.0004122
1639,1.87506,0.0136602,0.0004483,-0.0004483
1640,1.87605,0.014241,0.0004418,-0.0004418
1641,1.87703,0.0159086,0.000456,-0.000456
1642,1.87801,0.0138501,0.00043170000000000003,-0.00043170000000000003
1643,1.879,0.015471299999999999,0.0004683,-0.0004683
1644,1.87998,0.013933599999999999,0.000422,-0.000422
1645,1.88096,0.0151057,0.0004563,-0.0004563
1646,1.88194,0.0145603,0.000423,-0.000423
1647,1.88293,0.0154102,0.00040189999999999996,-0.00040189999999999996
1648,1.88391,0.0152352,0.0004394,-0.0004394
1649,1.88489,0.0139006,0.0004023,-0.0004023
1650,1.88588,0.015056000000000002,0.000427,-0.000427
1651,1.88686,0.0149102,0.00045870000000000004,-0.00045870000000000004
1652,1.88784,0.013806700000000002,0.0004558,-0.0004558
1653,1.88883,0.014674000000000001,0.0004132,-0.0004132
1654,1.88981,0.014481599999999999,0.0004371,-0.0004371
1655,1.89079,0.014819100000000002,0.0004664,-0.0004664
1656,1.89178,0.0145235,0.00041200000000000004,-0.00041200000000000004
1657,1.89276,0.013953199999999999,0.0004509,-0.0004509
1658,1.89374,0.015391,0.0004948,-0.0004948
1659,1.89473,0.0145371,0.0004638,-0.0004638
1660,1.89571,0.014540599999999999,0.00044429999999999996,-0.00044429999999999996
1661,1.89669,0.014844200000000002,0.0004556,-0.0004556
1662,1.89767,0.0133413,0.0004017,-0.0004017
1663,1.89866,0.014343999999999999,0.0004335,-0.0004335
1664,1.89964,0.0145277,0.0004902,-0.0004902
1665,1.90062,0.0155978,0.0004483,-0.0004483
1666,1.90161,0.013486499999999998,0.00040750000000000004,-0.00040750000000000004
1667,1.90259,0.016055200000000002,0.0004412,-0.0004412
1668,1.90357,0.0145321,0.00042160000000000006,-0.00042160000000000006
1669,1.90456,0.0139717,0.0004609,-0.0004609
1670,1.90554,0.0141166,0.00041799999999999997,-0.00041799999999999997
1671,1.90652,0.0156891,0.00045170000000000003,-0.00045170000000000003
1672,1.90751,0.0140176,0.00043850000000000003,-0.00043850000000000003
1673,1.90849,0.0148036,0.0004885,-0.0004885
1674,1.90947,0.0147439,0.0004586,-0.0004586
1675,1.91046,0.0153894,0.0004439,-0.0004439
1676,1.91144,0.0140053,0.00043220000000000004,-0.00043220000000000004
1677,1.91242,0.0141564,0.0004725,-0.0004725
1678,1.91341,0.0148882,0.0004478,-0.0004478
1679,1.91439,0.0140351,0.0004867,-0.0004867
1680,1.91537,0.014277100000000001,0.0004937,-0.0004937
1681,1.91636,0.0139004,0.0004619,-0.0004619
1682,1.91734,0.013869000000000001,0.0004419,-0.0004419
1683,1.91832,0.015157700000000001,0.00046269999999999997,-0.00046269999999999997
1684,1.91931,0.014598,0.00042320000000000004,-0.00042320000000000004
1685,1.92029,0.014512700000000002,0.000414,-0.000414
1686,1.92127,0.0145602,0.0004439,-0.0004439
1687,1.92226,0.015274399999999999,0.000438,-0.000438
1688,1.92324,0.0142368,0.000436,-0.000436
1689,1.92422,0.0147004,0.00039440000000000005,-0.00039440000000000005
1690,1.92521,0.015016400000000001,0.00045060000000000006,-0.00045060000000000006
1691,1.92619,0.014239,0.00047840000000000003,-0.00047840000000000003
1692,1.92717,0.015178100000000002,0.0004623,-0.0004623
1693,1.92816,0.015365100000000001,0.0005018,-0.0005018
1694,1.92914,0.0138694,0.0004768,-0.0004768
1695,1.93012,0.0141873,0.00046489999999999997,-0.00046489999999999997
1696,1.9311,0.0145922,0.0004563,-0.0004563
1697,1.93209,0.014102,0.0004843,-0.0004843
1698,1.93307,0.0147386,0.0005323,-0.0005323
1699,1.93405,0.0149833,0.000475,-0.000475
1700,1.93504,0.0149058,0.0004563,-0.0004563
1701,1.93602,0.0131701,0.000475,-0.000475
1702,1.937,0.0143233,0.0004663,-0.0004663
1703,1.93799,0.015884000000000002,0.00048770000000000004,-0.00048770000000000004
1704,1.93897,0.015077400000000001,0.00046960000000000003,-0.00046960000000000003
1705,1.93995,0.0157499,0.0004663,-0.0004663
1706,1.94094,0.015078000000000001,0.00043860000000000004,-0.00043860000000000004
1707,1.94192,0.0143363,0.000479,-0.000479
1708,1.9429,0.0145126,0.0004533,-0.0004533
1709,1.94389,0.0139673,0.0004819,-0.0004819
1710,1.94487,0.013399600000000001,0.0005228,-0.0005228
1711,1.94585,0.0146315,0.0004704,-0.0004704
1712,1.94684,0.0128823,0.0004582,-0.0004582
1713,1.94782,0.0149436,0.0004836,-0.0004836
1714,1.9488,0.013386100000000001,0.0004606,-0.0004606
1715,1.94979,0.0157577,0.00048800000000000004,-0.00048800000000000004
1716,1.95077,0.0139266,0.0004503,-0.0004503
1717,1.95175,0.014873400000000002,0.00045190000000000003,-0.00045190000000000003
1718,1.95274,0.014369700000000001,0.00045809999999999997,-0.00045809999999999997
1719,1.95372,0.0158305,0.00042520000000000004,-0.00042520000000000004
1720,1.9547,0.013846700000000002,0.000475,-0.000475
1721,1.95569,0.0145809,0.0004754,-0.0004754
1722,1.95667,0.014229499999999999,0.0004577,-0.0004577
1723,1.95765,0.015218400000000002,0.00046280000000000003,-0.00046280000000000003
1724,1.95864,0.014614700000000001,0.0004355,-0.0004355
1725,1.95962,0.0142877,0.0004525,-0.0004525
1726,1.9606,0.0136317,0.0004449,-0.0004449
1727,1.96159,0.0147444,0.0004921,-0.0004921
1728,1.96257,0.0151968,0.0004817,-0.0004817
1729,1.96355,0.0141726,0.00046269999999999997,-0.00046269999999999997
1730,1.96454,0.0146733,0.0004969,-0.0004969
1731,1.96552,0.0148975,0.00044580000000000005,-0.00044580000000000005
1732,1.9665,0.015157400000000001,0.0004736,-0.0004736
1733,1.96749,0.0152337,0.0004684,-0.0004684
1734,1.96847,0.013611,0.000453,-0.000453
1735,1.96945,0.014870399999999999,0.0004662,-0.0004662
1736,1.97044,0.015260000000000001,0.00047640000000000003,-0.00047640000000000003
1737,1.97142,0.0154416,0.0005292000000000001,-0.0005292000000000001
1738,1.9724,0.0139798,0.00046980000000000004,-0.00046980000000000004
1739,1.97339,0.0147301,0.0004992,-0.0004992
1740,1.97437,0.015467900000000001,0.00047030000000000005,-0.00047030000000000005
1741,1.97535,0.0146457,0.0004797,-0.0004797
1742,1.97634,0.0137832,0.000478,-0.000478
1743,1.97732,0.01575,0.00046300000000000003,-0.00046300000000000003
1744,1.9783,0.015078000000000001,0.0004503,-0.0004503
1745,1.97929,0.014435199999999999,0.0005394999999999999,-0.0005394999999999999
1746,1.98027,0.0142817,0.0004767,-0.0004767
1747,1.98125,0.0146643,0.0005114,-0.0005114
1748,1.98224,0.0131273,0.0004825,-0.0004825
1749,1.98322,0.0145414,0.000531,-0.000531
1750,1.9842,0.0150565,0.0005144,-0.0005144
1751,1.98519,0.013587499999999999,0.0005326,-0.0005326
1752,1.98617,0.014657,0.0005032,-0.0005032
1753,1.98715,0.0140961,0.0004883,-0.0004883
1754,1.98814,0.0156767,0.0004761,-0.0004761
1755,1.98912,0.0143899,0.0004773,-0.0004773
1756,1.99011,0.0141438,0.000505,-0.000505
1757,1.99109,0.0150966,0.0005192,-0.0005192
1758,1.99207,0.0140234,0.0005213,-0.0005213
1759,1.99306,0.0145161,0.00048800000000000004,-0.00048800000000000004
1760,1.99404,0.0150214,0.000526,-0.000526
1761,1.99502,0.0135615,0.0005292000000000001,-0.0005292000000000001
1762,1.99601,0.013389200000000002,0.00047910000000000004,-0.00047910000000000004
1763,1.99699,0.014183300000000001,0.00045870000000000004,-0.00045870000000000004
1764,1.99797,0.014762599999999999,0.0005321,-0.0005321
1765,1.99896,0.0153983,0.0005056,-0.0005056
1766,1.99994,0.0129076,0.00042490000000000003,-0.00042490000000000003
1767,2.00092,0.015389600000000002,0.0005259,-0.0005259
1768,2.00191,0.0160517,0.0005656,-0.0005656
1769,2.00289,0.0153776,0.0004614,-0.0004614
1770,2.00387,0.0150806,0.0004972,-0.0004972
1771,2.00486,0.0139839,0.0004782,-0.0004782
1772,2.00584,0.014640899999999998,0.0005026,-0.0005026
1773,2.00682,0.0135195,0.0004988999999999999,-0.0004988999999999999
1774,2.00781,0.0152916,0.0004967,-0.0004967
1775,2.00879,0.013873700000000001,0.00048489999999999997,-0.00048489999999999997
1776,2.00977,0.0153878,0.0005108000000000001,-0.0005108000000000001
1777,2.01076,0.014612,0.0005472,-0.0005472
1778,2.01174,0.0136516,0.0005069,-0.0005069
1779,2.01272,0.0156723,0.00047530000000000006,-0.00047530000000000006
1780,2.01371,0.0135255,0.000516,-0.000516
1781,2.01469,0.013726400000000001,0.0004634,-0.0004634
1782,2.01567,0.0145774,0.0004755,-0.0004755
1783,2.01666,0.0135079,0.0004535,-0.0004535
1784,2.01764,0.0148089,0.0004971,-0.0004971
1785,2.01862,0.014668200000000001,0.000508,-0.000508
1786,2.01961,0.013632,0.0005268,-0.0005268
1787,2.02059,0.013525100000000002,0.0005024,-0.0005024
1788,2.02157,0.0149174,0.0004895,-0.0004895
1789,2.02256,0.0146485,0.0005188,-0.0005188
1790,2.02354,0.0139224,0.0004353,-0.0004353
1791,2.02452,0.0134006,0.0004889,-0.0004889
1792,2.02551,0.015631600000000002,0.0005017,-0.0005017
1793,2.02649,0.014680899999999998,0.0005234,-0.0005234
1794,2.02747,0.014303699999999999,0.0005155,-0.0005155
1795,2.02846,0.0142594,0.0005224,-0.0005224
1796,2.02944,0.0148123,0.0005006,-0.0005006
1797,2.03042,0.014642,0.0005482,-0.0005482
1798,2.03141,0.014629099999999999,0.0004959000000000001,-0.0004959000000000001
1799,2.03239,0.0146905,0.0004953,-0.0004953
1800,2.03337,0.014634000000000001,0.0005025,-0.0005025
1801,2.03436,0.015495000000000002,0.0005147,-0.0005147
1802,2.03534,0.013845300000000001,0.0005016,-0.0005016
1803,2.03632,0.0150382,0.000555,-0.000555
1804,2.03731,0.014657,0.0005390000000000001,-0.0005390000000000001
1805,2.03829,0.0140509,0.000564,-0.000564
1806,2.03927,0.0143102,0.0005446,-0.0005446
1807,2.04026,0.014946500000000001,0.0005046,-0.0005046
1808,2.04124,0.013819600000000001,0.0005557,-0.0005557
1809,2.04222,0.0162547,0.0005927,-0.0005927
1810,2.04321,0.0149174,0.0005634,-0.0005634
1811,2.04419,0.015322800000000001,0.0005283,-0.0005283
1812,2.04517,0.0146166,0.0004921,-0.0004921
1813,2.04616,0.014303999999999999,0.0005466000000000001,-0.0005466000000000001
1814,2.04714,0.0136323,0.0005265000000000001,-0.0005265000000000001
1815,2.04813,0.0153317,0.0005137,-0.0005137
1816,2.04911,0.0148799,0.0005239,-0.0005239
1817,2.05009,0.0143942,0.0005618,-0.0005618
1818,2.05108,0.0131111,0.0005172,-0.0005172
1819,2.05206,0.014313800000000002,0.0005858,-0.0005858
1820,2.05304,0.0140792,0.0005539000000000001,-0.0005539000000000001
1821,2.05403,0.0155875,0.000558,-0.000558
1822,2.05501,0.013823799999999999,0.0005267000000000001,-0.0005267000000000001
1823,2.05599,0.0154266,0.0005586,-0.0005586
1824,2.05698,0.014010400000000001,0.0005283999999999999,-0.0005283999999999999
1825,2.05796,0.013362400000000002,0.0004968,-0.0004968
1826,2.05894,0.0140928,0.0005526,-0.0005526
1827,2.05993,0.0146607,0.000561,-0.000561
1828,2.06091,0.01434,0.0005438,-0.0005438
1829,2.06189,0.0144583,0.0005535000000000001,-0.0005535000000000001
1830,2.06288,0.0135842,0.000525,-0.000525
1831,2.06386,0.014893700000000001,0.0005007000000000001,-0.0005007000000000001
1832,2.06484,0.0138916,0.0005448,-0.0005448
1833,2.06583,0.0147044,0.0005238,-0.0005238
1834,2.06681,0.014563,0.0005055,-0.0005055
1835,2.06779,0.014532400000000001,0.0005616999999999999,-0.0005616999999999999
1836,2.06878,0.0140329,0.0004978,-0.0004978
1837,2.06976,0.015249,0.0004993,-0.0004993
1838,2.07074,0.014212,0.0004664,-0.0004664
1839,2.07173,0.0139199,0.00047759999999999995,-0.00047759999999999995
1840,2.07271,0.013247199999999999,0.0005612000000000001,-0.0005612000000000001
1841,2.07369,0.014425200000000001,0.0005275,-0.0005275
1842,2.07468,0.0139093,0.0005337,-0.0005337
1843,2.07566,0.013623300000000001,0.0005426000000000001,-0.0005426000000000001
1844,2.07664,0.0144793,0.0005606,-0.0005606
1845,2.07763,0.0148373,0.0005653,-0.0005653
1846,2.07861,0.014443,0.0005239,-0.0005239
1847,2.07959,0.0155775,0.0005547,-0.0005547
1848,2.08058,0.0154353,0.0005652,-0.0005652
1849,2.08156,0.0158012,0.0005811000000000001,-0.0005811000000000001
1850,2.08254,0.014155000000000001,0.00048210000000000006,-0.00048210000000000006
1851,2.08353,0.0154487,0.0005853,-0.0005853
1852,2.08451,0.0132792,0.0005367000000000001,-0.0005367000000000001
1853,2.0855,0.0134091,0.0005337,-0.0005337
1854,2.08648,0.0149233,0.0005838999999999999,-0.0005838999999999999
1855,2.08746,0.0143514,0.000583,-0.000583
1856,2.08845,0.0153854,0.0005113,-0.0005113
1857,2.08943,0.0135793,0.0005611,-0.0005611
1858,2.09041,0.0144675,0.0006055,-0.0006055
1859,2.0914,0.0151006,0.0005704999999999999,-0.0005704999999999999
1860,2.09238,0.0136135,0.0005485,-0.0005485
1861,2.09336,0.013285,0.0005897000000000001,-0.0005897000000000001
1862,2.09435,0.014181,0.0005766,-0.0005766
1863,2.09533,0.0139061,0.0006,-0.0006
1864,2.09631,0.013067899999999999,0.0005852,-0.0005852
1865,2.0973,0.0136889,0.0004892,-0.0004892
1866,2.09828,0.0143682,0.0005408,-0.0005408
1867,2.09926,0.0151854,0.0006008000000000001,-0.0006008000000000001
1868,2.10025,0.0154494,0.0005611,-0.0005611
1869,2.10123,0.0144872,0.0005876,-0.0005876
1870,2.10221,0.013836200000000002,0.0005557,-0.0005557
1871,2.1032,0.0136601,0.0005256000000000001,-0.0005256000000000001
1872,2.10418,0.0132795,0.0005913,-0.0005913
1873,2.10516,0.0149403,0.000568,-0.000568
1874,2.10615,0.013656999999999999,0.0005631,-0.0005631
1875,2.10713,0.0144761,0.0005532,-0.0005532
1876,2.10811,0.015575000000000002,0.0005731,-0.0005731
1877,2.1091,0.0149084,0.0005539000000000001,-0.0005539000000000001
1878,2.11008,0.0147428,0.0005847000000000001,-0.0005847000000000001
1879,2.11106,0.014126099999999999,0.0005305,-0.0005305
1880,2.11205,0.013428,0.0005811000000000001,-0.0005811000000000001
1881,2.11303,0.0146008,0.0005721,-0.0005721
1882,2.11402,0.0139462,0.0006126,-0.0006126
1883,2.115,0.0139139,0.0006095,-0.0006095
1884,2.11598,0.0140411,0.0005745,-0.0005745
1885,2.11697,0.0135466,0.0005878,-0.0005878
1886,2.11795,0.012886400000000001,0.000556,-0.000556
1887,2.11893,0.014675100000000002,0.0005441,-0.0005441
1888,2.11992,0.0134759,0.0005811000000000001,-0.0005811000000000001
1889,2.1209,0.013644799999999999,0.0006144000000000001,-0.0006144000000000001
1890,2.12188,0.014185300000000001,0.0005637000000000001,-0.0005637000000000001
1891,2.12287,0.014924100000000001,0.0005859000000000001,-0.0005859000000000001
1892,2.12385,0.0156269,0.0005600000000000001,-0.0005600000000000001
1893,2.12483,0.0144756,0.0005808,-0.0005808
1894,2.12582,0.014076100000000001,0.0005266,-0.0005266
1895,2.1268,0.0146444,0.0005528,-0.0005528
1896,2.12778,0.0143516,0.00058,-0.00058
1897,2.12877,0.0156694,0.0005717,-0.0005717
1898,2.12975,0.0131331,0.0005771,-0.0005771
1899,2.13073,0.012550500000000001,0.0005567,-0.0005567
1900,2.13172,0.0131777,0.0005794,-0.0005794
1901,2.1327,0.015547100000000001,0.0006413,-0.0006413
1902,2.13368,0.0136188,0.0005906,-0.0005906
1903,2.13467,0.013230200000000001,0.0005576,-0.0005576
1904,2.13565,0.013485100000000002,0.0005963,-0.0005963
1905,2.13664,0.014243200000000001,0.0004923,-0.0004923
1906,2.13762,0.013094900000000001,0.0005244000000000001,-0.0005244000000000001
1907,2.1386,0.0142852,0.0006177,-0.0006177
1908,2.13959,0.014777400000000001,0.0006397999999999999,-0.0006397999999999999
1909,2.14057,0.015048500000000001,0.0005807,-0.0005807
1910,2.14155,0.014544600000000001,0.0005941,-0.0005941
1911,2.14254,0.015301700000000001,0.0006017,-0.0006017
1912,2.14352,0.0138713,0.0005985,-0.0005985
1913,2.1445,0.0135862,0.0006065,-0.0006065
1914,2.14549,0.014546300000000002,0.0006091,-0.0006091
1915,2.14647,0.014733099999999999,0.0005538,-0.0005538
1916,2.14745,0.0157138,0.0005934,-0.0005934
1917,2.14844,0.0148727,0.0006208,-0.0006208
1918,2.14942,0.014894600000000001,0.0005509,-0.0005509
1919,2.1504,0.0155586,0.0006103,-0.0006103
1920,2.15139,0.0149466,0.0005833,-0.0005833
1921,2.15237,0.0147761,0.0006560000000000001,-0.0006560000000000001
1922,2.15336,0.015227500000000001,0.0005826,-0.0005826
1923,2.15434,0.0135509,0.0005472,-0.0005472
1924,2.15532,0.0138984,0.0005648000000000001,-0.0005648000000000001
1925,2.15631,0.0143932,0.0005982,-0.0005982
1926,2.15729,0.013923099999999999,0.0005634,-0.0005634
1927,2.15827,0.0148476,0.0005954,-0.0005954
1928,2.15926,0.0146756,0.0006003,-0.0006003
1929,2.16024,0.0132842,0.0005771,-0.0005771
1930,2.16122,0.014466600000000001,0.0005738000000000001,-0.0005738000000000001
1931,2.16221,0.0135327,0.0006158,-0.0006158
1932,2.16319,0.0133705,0.0005771,-0.0005771
1933,2.16417,0.014603699999999999,0.0005999,-0.0005999
1934,2.16516,0.0150508,0.0006093,-0.0006093
1935,2.16614,0.0143967,0.0005505999999999999,-0.0005505999999999999
1936,2.16713,0.013994500000000002,0.0006346,-0.0006346
1937,2.16811,0.014000600000000002,0.0005981000000000001,-0.0005981000000000001
1938,2.16909,0.012678400000000001,0.0005915,-0.0005915
1939,2.17008,0.0129476,0.0005798,-0.0005798
1940,2.17106,0.0157443,0.0006105,-0.0006105
1941,2.17204,0.0142732,0.0006025,-0.0006025
1942,2.17303,0.013804700000000001,0.0005921,-0.0005921
1943,2.17401,0.0141278,0.0006483,-0.0006483
1944,2.17499,0.013779699999999999,0.0006027,-0.0006027
1945,2.17598,0.012754600000000001,0.0006165000000000001,-0.0006165000000000001
1946,2.17696,0.013007500000000002,0.000604,-0.000604
1947,2.17794,0.0156079,0.0006116,-0.0006116
1948,2.17893,0.014524800000000001,0.0006372999999999999,-0.0006372999999999999
1949,2.17991,0.0115597,0.0005887,-0.0005887
1950,2.1809,0.0134452,0.0006025,-0.0006025
1951,2.18188,0.014279900000000002,0.0006115000000000001,-0.0006115000000000001
1952,2.18286,0.014341999999999999,0.0005451000000000001,-0.0005451000000000001
1953,2.18385,0.0141727,0.0005855,-0.0005855
1954,2.18483,0.013143,0.000561,-0.000561
1955,2.18581,0.0146521,0.0005907,-0.0005907
1956,2.1868,0.0149285,0.000643,-0.000643
1957,2.18778,0.014553799999999999,0.0006657000000000001,-0.0006657000000000001
1958,2.18877,0.0137496,0.0005871,-0.0005871
1959,2.18975,0.012549600000000001,0.0005961,-0.0005961
1960,2.19073,0.0125909,0.0005988,-0.0005988
1961,2.19172,0.013088500000000001,0.0006105,-0.0006105
1962,2.1927,0.0151967,0.0005840999999999999,-0.0005840999999999999
1963,2.19368,0.0128297,0.0005674,-0.0005674
1964,2.19467,0.013814900000000001,0.0006058,-0.0006058
1965,2.19565,0.0142629,0.0005901,-0.0005901
1966,2.19663,0.0134284,0.000629,-0.000629
1967,2.19762,0.0136292,0.0006228000000000001,-0.0006228000000000001
1968,2.1986,0.0143118,0.0006429,-0.0006429
1969,2.19959,0.0146578,0.0006116,-0.0006116
1970,2.20057,0.013291500000000001,0.0005662,-0.0005662
1971,2.20155,0.0141515,0.0006872,-0.0006872
1972,2.20254,0.013061000000000001,0.0006602,-0.0006602
1973,2.20352,0.013833200000000002,0.0005641999999999999,-0.0005641999999999999
1974,2.2045,0.0156138,0.0006177,-0.0006177
1975,2.20549,0.014957400000000001,0.0006602,-0.0006602
1976,2.20647,0.0140883,0.0005788,-0.0005788
1977,2.20746,0.0140911,0.0006081000000000001,-0.0006081000000000001
1978,2.20844,0.013386700000000001,0.0006284,-0.0006284
1979,2.20942,0.0145616,0.0006469999999999999,-0.0006469999999999999
1980,2.21041,0.0122716,0.0005724,-0.0005724
1981,2.21139,0.0138482,0.0005809000000000001,-0.0005809000000000001
1982,2.21237,0.013984300000000002,0.0006684,-0.0006684
1983,2.21336,0.0140911,0.0006747000000000001,-0.0006747000000000001
1984,2.21434,0.0140774,0.0006277,-0.0006277
1985,2.21533,0.014851600000000001,0.0006446000000000001,-0.0006446000000000001
1986,2.21631,0.0129127,0.0006716,-0.0006716
1987,2.21729,0.015558700000000002,0.0006259000000000001,-0.0006259000000000001
1988,2.21828,0.013335399999999999,0.0005904,-0.0005904
1989,2.21926,0.013904000000000001,0.0006486,-0.0006486
1990,2.22025,0.0131489,0.0005916,-0.0005916
1991,2.22123,0.0134649,0.0005797,-0.0005797
1992,2.22221,0.0150644,0.0006146,-0.0006146
1993,2.2232,0.014330400000000002,0.0006176,-0.0006176
1994,2.22418,0.0140111,0.0005451000000000001,-0.0005451000000000001
1995,2.22516,0.011927000000000002,0.0005903,-0.0005903
1996,2.22615,0.014855799999999999,0.0006203000000000001,-0.0006203000000000001
1997,2.22713,0.0138323,0.0006519,-0.0006519
1998,2.22812,0.012554700000000002,0.0005477,-0.0005477
1999,2.2291,0.0137215,0.0006284,-0.0006284
2000,2.23008,0.0155581,0.0006776,-0.0006776
2001,2.23107,0.0147238,0.0006365,-0.0006365
2002,2.23205,0.013611400000000001,0.0006252000000000001,-0.0006252000000000001
2003,2.23304,0.0164894,0.0005829,-0.0005829
2004,2.23402,0.0152925,0.0006131,-0.0006131
2005,2.235,0.013603400000000002,0.0006363000000000001,-0.0006363000000000001
2006,2.23599,0.014842800000000001,0.0005833,-0.0005833
2007,2.23697,0.0146451,0.0006561000000000001,-0.0006561000000000001
2008,2.23796,0.014453,0.0006345000000000001,-0.0006345000000000001
2009,2.23894,0.0151391,0.000541,-0.000541
2010,2.23992,0.0138841,0.0006406000000000001,-0.0006406000000000001
2011,2.24091,0.014050800000000002,0.0006500000000000001,-0.0006500000000000001
2012,2.24189,0.0152723,0.0006475000000000001,-0.0006475000000000001
2013,2.24287,0.01508,0.0006378,-0.0006378
2014,2.24386,0.0132209,0.0005588,-0.0005588
2015,2.24484,0.0123772,0.0006187,-0.0006187
2016,2.24583,0.013371599999999999,0.0006169,-0.0006169
2017,2.24681,0.0143584,0.0006259000000000001,-0.0006259000000000001
2018,2.24779,0.0130262,0.0006458999999999999,-0.0006458999999999999
2019,2.24878,0.014934300000000001,0.0006288000000000001,-0.0006288000000000001
2020,2.24976,0.012693399999999999,0.000723,-0.000723
2021,2.25075,0.0138314,0.0006268000000000001,-0.0006268000000000001
2022,2.25173,0.0139648,0.0006312,-0.0006312
2023,2.25272,0.0142605,0.0006369,-0.0006369
2024,2.2537,0.0149512,0.0007224999999999999,-0.0007224999999999999
2025,2.25468,0.0142292,0.0006179,-0.0006179
2026,2.25567,0.014272800000000002,0.0007118,-0.0007118
2027,2.25665,0.0157503,0.0007144,-0.0007144
2028,2.25764,0.016454,0.0007080000000000001,-0.0007080000000000001
2029,2.25862,0.013202,0.0006096,-0.0006096
2030,2.2596,0.013736,0.0005701,-0.0005701
2031,2.26059,0.01502,0.0005632,-0.0005632
2032,2.26157,0.0139673,0.0006669,-0.0006669
2033,2.26256,0.013437900000000001,0.0006396,-0.0006396
2034,2.26354,0.0149259,0.0006981,-0.0006981
2035,2.26452,0.0130053,0.0006566,-0.0006566
2036,2.26551,0.014263600000000001,0.0006571000000000001,-0.0006571000000000001
2037,2.26649,0.014973799999999999,0.0006526,-0.0006526
2038,2.26748,0.0152869,0.0006755,-0.0006755
2039,2.26846,0.0137798,0.0006627,-0.0006627
2040,2.26945,0.0130211,0.0006625,-0.0006625
2041,2.27043,0.014632000000000001,0.0006483999999999999,-0.0006483999999999999
2042,2.27141,0.0143789,0.0006718000000000001,-0.0006718000000000001
2043,2.2724,0.0144946,0.000654,-0.000654
2044,2.27338,0.0138989,0.00068,-0.00068
2045,2.27437,0.0150305,0.0006907,-0.0006907
2046,2.27535,0.014455599999999999,0.0006714000000000001,-0.0006714000000000001
2047,2.27634,0.013333900000000001,0.0007659,-0.0007659
2048,2.27732,0.0138321,0.0006693000000000001,-0.0006693000000000001
2049,2.2783,0.014629900000000001,0.0006943,-0.0006943
2050,2.27929,0.0150471,0.0007321999999999999,-0.0007321999999999999
2051,2.28027,0.014894300000000001,0.0006992,-0.0006992
2052,2.28126,0.0140555,0.0006558,-0.0006558
2053,2.28224,0.0157376,0.0007061000000000001,-0.0007061000000000001
2054,2.28323,0.0151111,0.0006761,-0.0006761
2055,2.28421,0.0130728,0.000691,-0.000691
2056,2.28519,0.013634900000000002,0.0006941,-0.0006941
2057,2.28618,0.014994799999999999,0.0007142,-0.0007142
2058,2.28716,0.0137716,0.0007174,-0.0007174
2059,2.28815,0.0143623,0.0006529999999999999,-0.0006529999999999999
2060,2.28913,0.0139513,0.0007355,-0.0007355
2061,2.29012,0.0157434,0.0007278,-0.0007278
2062,2.2911,0.0137614,0.0007067,-0.0007067
2063,2.29209,0.015250600000000001,0.0006927,-0.0006927
2064,2.29307,0.014453400000000002,0.0006406000000000001,-0.0006406000000000001
2065,2.29405,0.0137958,0.0007253,-0.0007253
2066,2.29504,0.013439399999999999,0.0006856,-0.0006856
2067,2.29602,0.0144659,0.0006952,-0.0006952
2068,2.29701,0.015220000000000001,0.0006992,-0.0006992
2069,2.29799,0.0144322,0.0007660000000000001,-0.0007660000000000001
2070,2.29898,0.0131264,0.0006569999999999999,-0.0006569999999999999
2071,2.29996,0.015197400000000002,0.0006882,-0.0006882
2072,2.30095,0.013394699999999999,0.0006858000000000001,-0.0006858000000000001
2073,2.30193,0.0156893,0.0007019,-0.0007019
2074,2.30291,0.0130479,0.0007037,-0.0007037
2075,2.3039,0.0152546,0.0007077,-0.0007077
2076,2.30488,0.013595900000000001,0.0006801,-0.0006801
2077,2.30587,0.01521,0.0006639,-0.0006639
2078,2.30685,0.013458900000000001,0.0007090000000000001,-0.0007090000000000001
2079,2.30784,0.012661400000000001,0.0006523,-0.0006523
2080,2.30882,0.014450900000000001,0.0006592000000000001,-0.0006592000000000001
2081,2.30981,0.012871200000000001,0.0006932,-0.0006932
2082,2.31079,0.0144524,0.0007082,-0.0007082
2083,2.31178,0.0158191,0.0006683,-0.0006683
2084,2.31276,0.0145004,0.000789,-0.000789
2085,2.31375,0.0161934,0.0006992,-0.0006992
2086,2.31473,0.0142368,0.0006849,-0.0006849
2087,2.31572,0.0147891,0.0007765,-0.0007765
2088,2.3167,0.013328,0.0006714000000000001,-0.0006714000000000001
2089,2.31768,0.014276899999999999,0.0007231,-0.0007231
2090,2.31867,0.0147767,0.0007698000000000001,-0.0007698000000000001
2091,2.31965,0.0158708,0.0007477,-0.0007477
2092,2.32064,0.0162898,0.0007446,-0.0007446
2093,2.32162,0.014874,0.0007427,-0.0007427
2094,2.32261,0.0142982,0.000746,-0.000746
2095,2.32359,0.014176,0.0007945000000000001,-0.0007945000000000001
2096,2.32458,0.015200800000000002,0.0007323000000000001,-0.0007323000000000001
2097,2.32556,0.0133928,0.00067,-0.00067
2098,2.32655,0.013565,0.0008024000000000001,-0.0008024000000000001
2099,2.32753,0.0142436,0.0007381999999999999,-0.0007381999999999999
2100,2.32852,0.014287099999999999,0.0007457999999999999,-0.0007457999999999999
2101,2.3295,0.0132125,0.0007421999999999999,-0.0007421999999999999
2102,2.33049,0.0154443,0.0007576,-0.0007576
2103,2.33147,0.0139716,0.0007177,-0.0007177
2104,2.33246,0.0148939,0.000722,-0.000722
2105,2.33344,0.0140344,0.0006988999999999999,-0.0006988999999999999
2106,2.33443,0.015121500000000001,0.0007239,-0.0007239
2107,2.33541,0.0142889,0.0007673000000000001,-0.0007673000000000001
2108,2.3364,0.0140099,0.0007062,-0.0007062
2109,2.33738,0.0144284,0.0007237000000000001,-0.0007237000000000001
2110,2.33837,0.0146091,0.0007144,-0.0007144
2111,2.33935,0.013652800000000001,0.0007055000000000001,-0.0007055000000000001
2112,2.34034,0.0154661,0.0007821,-0.0007821
2113,2.34132,0.014159900000000001,0.0006676,-0.0006676
2114,2.34231,0.0158481,0.0007306,-0.0007306
2115,2.34329,0.0152119,0.0006728000000000001,-0.0006728000000000001
2116,2.34428,0.0154102,0.0007148,-0.0007148
2117,2.34526,0.013832500000000001,0.0007072000000000001,-0.0007072000000000001
2118,2.34625,0.0152963,0.0007188,-0.0007188
2119,2.34723,0.0142034,0.000738,-0.000738
2120,2.34822,0.0143889,0.0006900000000000001,-0.0006900000000000001
2121,2.3492,0.014266700000000002,0.0007193,-0.0007193
2122,2.35019,0.014298,0.0007953000000000001,-0.0007953000000000001
2123,2.35118,0.0156842,0.000698,-0.000698
2124,2.35216,0.0138126,0.0007182,-0.0007182
2125,2.35315,0.0153273,0.0008072999999999999,-0.0008072999999999999
2126,2.35413,0.0143245,0.0007288,-0.0007288
2127,2.35512,0.0146496,0.0007366,-0.0007366
2128,2.3561,0.0133496,0.0007065000000000001,-0.0007065000000000001
2129,2.35709,0.0124136,0.0007985000000000001,-0.0007985000000000001
2130,2.35807,0.0156816,0.0007105000000000001,-0.0007105000000000001
2131,2.35906,0.014801400000000001,0.0008013000000000001,-0.0008013000000000001
2132,2.36004,0.012384,0.0006996,-0.0006996
2133,2.36103,0.0135319,0.0007956,-0.0007956
2134,2.36201,0.0153197,0.0008216,-0.0008216
2135,2.363,0.0136058,0.0007936999999999999,-0.0007936999999999999
2136,2.36399,0.014392499999999999,0.0007706000000000001,-0.0007706000000000001
2137,2.36497,0.0145504,0.0007788000000000001,-0.0007788000000000001
2138,2.36596,0.0136717,0.0007672,-0.0007672
2139,2.36694,0.012204900000000001,0.0007929,-0.0007929
2140,2.36793,0.0151476,0.0007882000000000001,-0.0007882000000000001
2141,2.36891,0.0140072,0.0007681000000000001,-0.0007681000000000001
2142,2.3699,0.0137988,0.0007721000000000001,-0.0007721000000000001
2143,2.37088,0.0136154,0.0007591000000000001,-0.0007591000000000001
2144,2.37187,0.0128105,0.0007511,-0.0007511
2145,2.37286,0.0131934,0.0008007,-0.0008007
2146,2.37384,0.0155942,0.0007993000000000001,-0.0007993000000000001
2147,2.37483,0.016322700000000002,0.0007482999999999999,-0.0007482999999999999
2148,2.37581,0.0145319,0.0007461,-0.0007461
2149,2.3768,0.0155752,0.0007769,-0.0007769
2150,2.37778,0.0144295,0.0006894000000000001,-0.0006894000000000001
2151,2.37877,0.0131002,0.0007865,-0.0007865
2152,2.37976,0.0115786,0.0007391,-0.0007391
2153,2.38074,0.014564500000000001,0.0007031,-0.0007031
2154,2.38173,0.0146687,0.0008047,-0.0008047
2155,2.38271,0.014912000000000002,0.0007472,-0.0007472
2156,2.3837,0.0149526,0.0007707,-0.0007707
2157,2.38468,0.0147095,0.0008124000000000001,-0.0008124000000000001
2158,2.38567,0.011622200000000001,0.0007013999999999999,-0.0007013999999999999
2159,2.38666,0.0162581,0.000858,-0.000858
2160,2.38764,0.0142894,0.0007807000000000001,-0.0007807000000000001
2161,2.38863,0.014286300000000002,0.0008056000000000001,-0.0008056000000000001
2162,2.38961,0.0156039,0.0007771000000000001,-0.0007771000000000001
2163,2.3906,0.0124925,0.0008414000000000001,-0.0008414000000000001
2164,2.39159,0.0139267,0.0007419000000000001,-0.0007419000000000001
2165,2.39257,0.0121939,0.0007608,-0.0007608
2166,2.39356,0.0137806,0.000905,-0.000905
2167,2.39454,0.013912,0.0008183,-0.0008183
2168,2.39553,0.0138058,0.0007401,-0.0007401
2169,2.39652,0.014916,0.0007825,-0.0007825
2170,2.3975,0.0113631,0.0007642,-0.0007642
2171,2.39849,0.0145901,0.0007727000000000001,-0.0007727000000000001
2172,2.39948,0.0135744,0.0008132,-0.0008132
2173,2.40046,0.015905700000000002,0.0007757,-0.0007757
2174,2.40145,0.014753400000000002,0.000755,-0.000755
2175,2.40243,0.0148865,0.0008411,-0.0008411
2176,2.40342,0.014864299999999999,0.0007635000000000001,-0.0007635000000000001
2177,2.40441,0.014619,0.0007629,-0.0007629
2178,2.40539,0.013109800000000001,0.0007681000000000001,-0.0007681000000000001
2179,2.40638,0.0162331,0.0008387000000000001,-0.0008387000000000001
2180,2.40737,0.014088000000000002,0.000782,-0.000782
2181,2.40835,0.013592400000000001,0.0007623,-0.0007623
2182,2.40934,0.015156900000000001,0.0007726,-0.0007726
2183,2.41032,0.0148562,0.0008123,-0.0008123
2184,2.41131,0.0138603,0.0007752000000000001,-0.0007752000000000001
2185,2.4123,0.0125581,0.0008264,-0.0008264
2186,2.41328,0.0144507,0.0008097,-0.0008097
2187,2.41427,0.012960000000000001,0.0007834000000000001,-0.0007834000000000001
2188,2.41526,0.0142587,0.0008347000000000001,-0.0008347000000000001
2189,2.41624,0.014669399999999999,0.0008164000000000001,-0.0008164000000000001
2190,2.41723,0.013717,0.000797,-0.000797
2191,2.41822,0.0139482,0.0007808,-0.0007808
2192,2.4192,0.014303399999999999,0.0008157,-0.0008157
2193,2.42019,0.015190500000000001,0.0007793,-0.0007793
2194,2.42118,0.0150586,0.000839,-0.000839
2195,2.42216,0.0134154,0.0007657,-0.0007657
2196,2.42315,0.0166328,0.0008495999999999999,-0.0008495999999999999
2197,2.42414,0.0147993,0.000794,-0.000794
2198,2.42512,0.017092,0.0008079000000000001,-0.0008079000000000001
2199,2.42611,0.0161121,0.0008562,-0.0008562
2200,2.4271,0.0161083,0.0008485,-0.0008485
2201,2.42809,0.0155709,0.000813,-0.000813
2202,2.42907,0.0152192,0.0007969,-0.0007969
2203,2.43006,0.0155476,0.0008469,-0.0008469
2204,2.43105,0.0160473,0.0008697,-0.0008697
2205,2.43203,0.012361899999999999,0.0008765000000000001,-0.0008765000000000001
2206,2.43302,0.0157296,0.0008741,-0.0008741
2207,2.43401,0.0149336,0.0007822,-0.0007822
2208,2.43499,0.0157385,0.000838,-0.000838
2209,2.43598,0.0143137,0.0008304,-0.0008304
2210,2.43697,0.0141325,0.0008122,-0.0008122
2211,2.43796,0.0140693,0.0008065,-0.0008065
2212,2.43894,0.0153769,0.0008161,-0.0008161
2213,2.43993,0.017168600000000003,0.0008457000000000001,-0.0008457000000000001
2214,2.44092,0.0136538,0.0008273,-0.0008273
2215,2.4419,0.0145062,0.0007846,-0.0007846
2216,2.44289,0.014303399999999999,0.000823,-0.000823
2217,2.44388,0.015425800000000002,0.0008497000000000001,-0.0008497000000000001
2218,2.44487,0.0126226,0.000802,-0.000802
2219,2.44585,0.0150548,0.0008839,-0.0008839
2220,2.44684,0.0136311,0.0008727,-0.0008727
2221,2.44783,0.013343100000000002,0.0008453,-0.0008453
2222,2.44882,0.014793700000000002,0.0008219,-0.0008219
2223,2.4498,0.0128308,0.000844,-0.000844
2224,2.45079,0.0161062,0.0008721,-0.0008721
2225,2.45178,0.0126543,0.0008508000000000001,-0.0008508000000000001
2226,2.45277,0.0147899,0.0008179,-0.0008179
2227,2.45375,0.0142817,0.0008150000000000001,-0.0008150000000000001
2228,2.45474,0.0138104,0.0008747000000000001,-0.0008747000000000001
2229,2.45573,0.0150638,0.0008949,-0.0008949
2230,2.45672,0.0153968,0.0009068,-0.0009068
2231,2.4577,0.0123333,0.0008066,-0.0008066
2232,2.45869,0.0114967,0.0008585,-0.0008585
2233,2.45968,0.0139745,0.0008305999999999999,-0.0008305999999999999
2234,2.46067,0.012046,0.0008322000000000001,-0.0008322000000000001
2235,2.46165,0.0151466,0.0008646,-0.0008646
2236,2.46264,0.01452,0.0008033,-0.0008033
2237,2.46363,0.0160201,0.0008784,-0.0008784
2238,2.46462,0.0128144,0.0008114000000000001,-0.0008114000000000001
2239,2.46561,0.0164751,0.0008643000000000001,-0.0008643000000000001
2240,2.46659,0.0151294,0.0009008,-0.0009008
2241,2.46758,0.014558,0.0008515,-0.0008515
2242,2.46857,0.013852199999999999,0.0008374,-0.0008374
2243,2.46956,0.014331100000000001,0.0008694000000000001,-0.0008694000000000001
2244,2.47055,0.0166483,0.0009451,-0.0009451
2245,2.47153,0.0150848,0.0009398,-0.0009398
2246,2.47252,0.0143233,0.0008794,-0.0008794
2247,2.47351,0.015757900000000002,0.0008503,-0.0008503
2248,2.4745,0.0132144,0.0009161,-0.0009161
2249,2.47549,0.0132945,0.0008544000000000001,-0.0008544000000000001
2250,2.47648,0.0132608,0.00083,-0.00083
2251,2.47746,0.0165999,0.0009246,-0.0009246
2252,2.47845,0.0148377,0.0009687999999999999,-0.0009687999999999999
2253,2.47944,0.013621300000000001,0.0008813,-0.0008813
2254,2.48043,0.017214300000000002,0.0009184000000000001,-0.0009184000000000001
2255,2.48142,0.014539400000000001,0.0008645,-0.0008645
2256,2.48241,0.0157851,0.0008602,-0.0008602
2257,2.48339,0.0136366,0.0008028000000000001,-0.0008028000000000001
2258,2.48438,0.015027,0.0008194,-0.0008194
2259,2.48537,0.014835300000000001,0.0008246000000000001,-0.0008246000000000001
2260,2.48636,0.0151479,0.0008758,-0.0008758
2261,2.48735,0.0117691,0.0009159000000000001,-0.0009159000000000001
2262,2.48834,0.0123645,0.0008991,-0.0008991
2263,2.48933,0.0160802,0.0009087000000000001,-0.0009087000000000001
2264,2.49031,0.014969699999999999,0.0007753,-0.0007753
2265,2.4913,0.013462400000000001,0.0008843,-0.0008843
2266,2.49229,0.013750199999999999,0.0007942000000000001,-0.0007942000000000001
2267,2.49328,0.014750399999999999,0.0009215,-0.0009215
2268,2.49427,0.0137447,0.0008687,-0.0008687
2269,2.49526,0.016611,0.0008447000000000001,-0.0008447000000000001
2270,2.49625,0.0142214,0.0008828999999999999,-0.0008828999999999999
2271,2.49724,0.0155426,0.0009384,-0.0009384
2272,2.49823,0.015996,0.000852,-0.000852
2273,2.49922,0.0154653,0.0008985,-0.0008985
2274,2.5002,0.013844200000000001,0.000788,-0.000788
2275,2.50119,0.0152887,0.0009109000000000001,-0.0009109000000000001
2276,2.50218,0.0136038,0.0008602999999999999,-0.0008602999999999999
2277,2.50317,0.0139767,0.0009126,-0.0009126
2278,2.50416,0.0111212,0.0009659,-0.0009659
2279,2.50515,0.0124891,0.0009689000000000001,-0.0009689000000000001
2280,2.50614,0.014554000000000001,0.0008729000000000001,-0.0008729000000000001
2281,2.50713,0.0149879,0.000962,-0.000962
2282,2.50812,0.013713,0.0009499,-0.0009499
2283,2.50911,0.014821500000000001,0.0008788,-0.0008788
2284,2.5101,0.0143014,0.0009277,-0.0009277
2285,2.51109,0.0144154,0.0009168,-0.0009168
2286,2.51208,0.0173156,0.000898,-0.000898
2287,2.51307,0.0148137,0.0009529,-0.0009529
2288,2.51406,0.0179802,0.0010485,-0.0010485
2289,2.51504,0.0130407,0.0008914,-0.0008914
2290,2.51603,0.014974000000000001,0.0009845,-0.0009845
2291,2.51702,0.0154471,0.0009227,-0.0009227
2292,2.51801,0.0162752,0.0009998,-0.0009998
2293,2.519,0.0139486,0.0009468,-0.0009468
2294,2.51999,0.0157031,0.0009310000000000001,-0.0009310000000000001
2295,2.52098,0.0132551,0.0009224000000000001,-0.0009224000000000001
2296,2.52197,0.0124202,0.0009055000000000001,-0.0009055000000000001
2297,2.52296,0.0138267,0.0009651999999999999,-0.0009651999999999999
2298,2.52395,0.016197,0.0008525000000000001,-0.0008525000000000001
2299,2.52494,0.0174057,0.0008885,-0.0008885
2300,2.52593,0.014783,0.0009057,-0.0009057
2301,2.52692,0.0153064,0.0009562,-0.0009562
2302,2.52791,0.0130104,0.0008883000000000001,-0.0008883000000000001
2303,2.5289,0.0146024,0.0009557000000000001,-0.0009557000000000001
2304,2.52989,0.013747,0.0008536,-0.0008536
2305,2.53088,0.0134932,0.0008873,-0.0008873
2306,2.53187,0.0146932,0.0009073000000000001,-0.0009073000000000001
2307,2.53286,0.0153172,0.0009635000000000001,-0.0009635000000000001
2308,2.53385,0.014451,0.000845,-0.000845
2309,2.53485,0.0158344,0.0008231,-0.0008231
2310,2.53584,0.0135209,0.0009761,-0.0009761
2311,2.53683,0.01754,0.0010001,-0.0010001
2312,2.53782,0.0135513,0.0009448,-0.0009448
2313,2.53881,0.0164581,0.0010146,-0.0010146
2314,2.5398,0.013580000000000002,0.0009223,-0.0009223
2315,2.54079,0.0136193,0.0009511,-0.0009511
2316,2.54178,0.015352699999999999,0.001005,-0.001005
2317,2.54277,0.0160075,0.0010289,-0.0010289
2318,2.54376,0.0151835,0.0009477,-0.0009477
2319,2.54475,0.0157948,0.0010415,-0.0010415
2320,2.54574,0.015451999999999999,0.0008619000000000001,-0.0008619000000000001
2321,2.54673,0.0147982,0.0009706,-0.0009706
2322,2.54772,0.015616399999999999,0.000888,-0.000888
2323,2.54872,0.0161021,0.0009712999999999999,-0.0009712999999999999
2324,2.54971,0.0149421,0.0009436000000000001,-0.0009436000000000001
2325,2.5507,0.0129734,0.0008763999999999999,-0.0008763999999999999
2326,2.55169,0.012001999999999999,0.0009559,-0.0009559
2327,2.55268,0.0130517,0.0009832,-0.0009832
2328,2.55367,0.0155293,0.0009876,-0.0009876
2329,2.55466,0.015661,0.0009895,-0.0009895
2330,2.55565,0.0159142,0.0009268,-0.0009268
2331,2.55664,0.014198800000000001,0.0008819,-0.0008819
2332,2.55764,0.0156198,0.0010053,-0.0010053
2333,2.55863,0.014760200000000001,0.0009907000000000002,-0.0009907000000000002
2334,2.55962,0.015713500000000002,0.0009922,-0.0009922
2335,2.56061,0.0154008,0.0008191,-0.0008191
2336,2.5616,0.014505500000000001,0.0010247000000000001,-0.0010247000000000001
2337,2.56259,0.0164012,0.0009432,-0.0009432
2338,2.56359,0.014820700000000001,0.0010168,-0.0010168
2339,2.56458,0.014697,0.0009603000000000001,-0.0009603000000000001
2340,2.56557,0.0133042,0.0010313,-0.0010313
2341,2.56656,0.0167994,0.0009697999999999999,-0.0009697999999999999
2342,2.56755,0.011921500000000002,0.0009407,-0.0009407
2343,2.56854,0.015948,0.0009082999999999999,-0.0009082999999999999
2344,2.56954,0.014682599999999999,0.0010024,-0.0010024
2345,2.57053,0.0135586,0.0010159,-0.0010159
2346,2.57152,0.0129503,0.0009903000000000002,-0.0009903000000000002
2347,2.57251,0.015613600000000002,0.0009350000000000001,-0.0009350000000000001
2348,2.5735,0.014296,0.0009103000000000001,-0.0009103000000000001
2349,2.5745,0.013871,0.001038,-0.001038
2350,2.57549,0.015517600000000001,0.0009031,-0.0009031
2351,2.57648,0.0149102,0.0010348,-0.0010348
2352,2.57747,0.010778600000000001,0.0010413,-0.0010413
2353,2.57847,0.0154408,0.0009683000000000001,-0.0009683000000000001
2354,2.57946,0.013198600000000001,0.0009695,-0.0009695
2355,2.58045,0.0161489,0.0010562,-0.0010562
2356,2.58144,0.0130903,0.0009598,-0.0009598
2357,2.58244,0.014350000000000002,0.0008671,-0.0008671
2358,2.58343,0.0158852,0.0009789,-0.0009789
2359,2.58442,0.0141096,0.00105,-0.00105
2360,2.58541,0.0142895,0.000929,-0.000929
2361,2.58641,0.0159049,0.0010424,-0.0010424
2362,2.5874,0.014776800000000001,0.000969,-0.000969
2363,2.58839,0.0147709,0.0009797,-0.0009797
2364,2.58938,0.0153215,0.0010179,-0.0010179
2365,2.59038,0.0132208,0.0008952000000000001,-0.0008952000000000001
2366,2.59137,0.014720899999999999,0.0010917000000000001,-0.0010917000000000001
2367,2.59236,0.0145746,0.0009874,-0.0009874
2368,2.59336,0.0141945,0.000951,-0.000951
2369,2.59435,0.016530700000000002,0.0010523000000000002,-0.0010523000000000002
2370,2.59534,0.0158685,0.0009311,-0.0009311
2371,2.59634,0.0159686,0.0010421,-0.0010421
2372,2.59733,0.0152726,0.0009507000000000001,-0.0009507000000000001
2373,2.59832,0.0166147,0.0010056,-0.0010056
2374,2.59932,0.0131254,0.0009224000000000001,-0.0009224000000000001
2375,2.60031,0.0132774,0.0009462,-0.0009462
2376,2.6013,0.0159339,0.001035,-0.001035
2377,2.6023,0.0142524,0.0010429,-0.0010429
2378,2.60329,0.0141631,0.0010314,-0.0010314
2379,2.60428,0.011979,0.0009568000000000001,-0.0009568000000000001
2380,2.60528,0.015496700000000002,0.0009422,-0.0009422
2381,2.60627,0.0153464,0.0010878,-0.0010878
2382,2.60727,0.0121779,0.0009625,-0.0009625
2383,2.60826,0.0150602,0.0010173,-0.0010173
2384,2.60925,0.0149044,0.0009687999999999999,-0.0009687999999999999
2385,2.61025,0.015089300000000002,0.0010505,-0.0010505
2386,2.61124,0.0143075,0.0009988,-0.0009988
2387,2.61223,0.0168919,0.0010173,-0.0010173
2388,2.61323,0.0145828,0.0010042,-0.0010042
2389,2.61422,0.0147101,0.001136,-0.001136
2390,2.61522,0.013689100000000001,0.0009293999999999999,-0.0009293999999999999
2391,2.61621,0.0158129,0.0010803,-0.0010803
2392,2.61721,0.0148633,0.0010989,-0.0010989
2393,2.6182,0.0150491,0.0009849,-0.0009849
2394,2.61919,0.0174148,0.0010617,-0.0010617
2395,2.62019,0.0177346,0.0010898,-0.0010898
2396,2.62118,0.0144058,0.0009354999999999999,-0.0009354999999999999
2397,2.62218,0.01328,0.0009937,-0.0009937
2398,2.62317,0.015781700000000003,0.000955,-0.000955
2399,2.62417,0.0144063,0.0010376,-0.0010376
2400,2.62516,0.0159783,0.0010513,-0.0010513
2401,2.62616,0.0158166,0.0010459,-0.0010459
2402,2.62715,0.0136515,0.0010223,-0.0010223
2403,2.62815,0.0146333,0.0010385,-0.0010385
2404,2.62914,0.010078,0.0011344,-0.0011344
2405,2.63014,0.0129545,0.0009643000000000001,-0.0009643000000000001
2406,2.63113,0.0137479,0.0010418,-0.0010418
2407,2.63213,0.012285500000000001,0.0009343999999999999,-0.0009343999999999999
2408,2.63312,0.015936,0.0009617000000000001,-0.0009617000000000001
2409,2.63412,0.0139693,0.0009894,-0.0009894
2410,2.63511,0.0137538,0.0009223,-0.0009223
2411,2.63611,0.011299300000000002,0.0010702,-0.0010702
2412,2.6371,0.0149535,0.0010209,-0.0010209
2413,2.6381,0.0150708,0.0010453,-0.0010453
2414,2.6391,0.0169469,0.0009849,-0.0009849
2415,2.64009,0.0143196,0.0009847,-0.0009847
2416,2.64109,0.0152952,0.0010145,-0.0010145
2417,2.64208,0.0143198,0.0010665,-0.0010665
2418,2.64308,0.014479200000000001,0.000967,-0.000967
2419,2.64407,0.0152678,0.0009534,-0.0009534
2420,2.64507,0.015509,0.0009557000000000001,-0.0009557000000000001
2421,2.64607,0.013527899999999999,0.0010341,-0.0010341
2422,2.64706,0.015453699999999999,0.0010965,-0.0010965
2423,2.64806,0.0153009,0.0010801,-0.0010801
2424,2.64906,0.0161975,0.0010927,-0.0010927
2425,2.65005,0.0155371,0.0010608,-0.0010608
2426,2.65105,0.0159509,0.0010385,-0.0010385
2427,2.65204,0.015170600000000001,0.0009971,-0.0009971
2428,2.65304,0.0125972,0.0010856000000000001,-0.0010856000000000001
2429,2.65404,0.0151245,0.0010793,-0.0010793
2430,2.65503,0.013300300000000001,0.0010562,-0.0010562
2431,2.65603,0.0143302,0.0010793,-0.0010793
2432,2.65703,0.013252,0.0011078000000000001,-0.0011078000000000001
2433,2.65802,0.013222000000000001,0.0009941,-0.0009941
2434,2.65902,0.015460400000000001,0.0010676,-0.0010676
2435,2.66002,0.0142754,0.0010496,-0.0010496
2436,2.66101,0.012708500000000001,0.0010999,-0.0010999
2437,2.66201,0.0160421,0.0010308000000000001,-0.0010308000000000001
2438,2.66301,0.0153752,0.0009679,-0.0009679
2439,2.66401,0.0143319,0.0010875,-0.0010875
2440,2.665,0.0128884,0.0010098,-0.0010098
2441,2.666,0.0135429,0.001059,-0.001059
2442,2.667,0.014894600000000001,0.000994,-0.000994
2443,2.66799,0.0169562,0.0011131000000000001,-0.0011131000000000001
2444,2.66899,0.012959499999999999,0.001061,-0.001061
2445,2.66999,0.013156000000000001,0.0010839,-0.0010839
2446,2.67099,0.014472,0.0011095,-0.0011095
2447,2.67199,0.013300900000000001,0.001122,-0.001122
2448,2.67298,0.0138018,0.0010692,-0.0010692
2449,2.67398,0.0150021,0.0011136,-0.0011136
2450,2.67498,0.0157196,0.00107,-0.00107
2451,2.67598,0.0166275,0.001022,-0.001022
2452,2.67697,0.0168122,0.0010066,-0.0010066
2453,2.67797,0.014179299999999999,0.0011098,-0.0011098
2454,2.67897,0.0121524,0.0011363,-0.0011363
2455,2.67997,0.0112747,0.0010746,-0.0010746
2456,2.68097,0.0165547,0.0012063,-0.0012063
2457,2.68197,0.013066,0.0010003,-0.0010003
2458,2.68296,0.014904500000000001,0.0009779,-0.0009779
2459,2.68396,0.0154002,0.0011251,-0.0011251
2460,2.68496,0.013494299999999999,0.0011015,-0.0011015
2461,2.68596,0.0144273,0.0011203,-0.0011203
2462,2.68696,0.0147292,0.0010095,-0.0010095
2463,2.68796,0.0158748,0.00105,-0.00105
2464,2.68896,0.0147437,0.001118,-0.001118
2465,2.68995,0.0142331,0.0010716,-0.0010716
2466,2.69095,0.013106,0.0011147,-0.0011147
2467,2.69195,0.0157419,0.0009771,-0.0009771
2468,2.69295,0.0156914,0.0011444,-0.0011444
2469,2.69395,0.0158296,0.0011169,-0.0011169
2470,2.69495,0.012473000000000001,0.0010283,-0.0010283
2471,2.69595,0.0139292,0.0010169,-0.0010169
2472,2.69695,0.012689299999999999,0.0011363,-0.0011363
2473,2.69795,0.015997900000000002,0.0011875,-0.0011875
2474,2.69895,0.0165808,0.0011035,-0.0011035
2475,2.69995,0.0152097,0.0010310999999999999,-0.0010310999999999999
2476,2.70095,0.0190049,0.001097,-0.001097
2477,2.70195,0.017817200000000002,0.0011511000000000002,-0.0011511000000000002
2478,2.70295,0.0158307,0.0009412,-0.0009412
2479,2.70395,0.0163678,0.0011888,-0.0011888
2480,2.70495,0.0162501,0.0011178000000000002,-0.0011178000000000002
2481,2.70595,0.0170684,0.0011965,-0.0011965
2482,2.70695,0.013504100000000002,0.0010358000000000001,-0.0010358000000000001
2483,2.70795,0.0166334,0.001154,-0.001154
2484,2.70895,0.0133319,0.0012246,-0.0012246
2485,2.70995,0.013669500000000001,0.0010871000000000001,-0.0010871000000000001
2486,2.71095,0.0142412,0.0011491,-0.0011491
2487,2.71195,0.013378699999999999,0.0010388,-0.0010388
2488,2.71295,0.016696100000000002,0.0011806,-0.0011806
2489,2.71395,0.0161682,0.0011718000000000002,-0.0011718000000000002
2490,2.71495,0.0156969,0.0010425,-0.0010425
2491,2.71595,0.017086,0.0012039,-0.0012039
2492,2.71695,0.0160509,0.0011256,-0.0011256
2493,2.71795,0.0146251,0.0012108,-0.0012108
2494,2.71895,0.0154364,0.0010324,-0.0010324
2495,2.71995,0.012982800000000001,0.0012211,-0.0012211
2496,2.72095,0.015959,0.0011888,-0.0011888
2497,2.72196,0.0130671,0.0011771,-0.0011771
2498,2.72296,0.0168815,0.0011300000000000001,-0.0011300000000000001
2499,2.72396,0.014239100000000001,0.0010525,-0.0010525
2500,2.72496,0.0152792,0.0011811,-0.0011811
2501,2.72596,0.0137059,0.0011350000000000002,-0.0011350000000000002
2502,2.72696,0.017263,0.0010489,-0.0010489
2503,2.72796,0.0176087,0.0011353000000000001,-0.0011353000000000001
2504,2.72897,0.0151226,0.0011813,-0.0011813
2505,2.72997,0.0156165,0.0012443,-0.0012443
2506,2.73097,0.0164263,0.0011635,-0.0011635
2507,2.73197,0.013219700000000001,0.0010943,-0.0010943
2508,2.73297,0.0159476,0.0011940000000000002,-0.0011940000000000002
2509,2.73398,0.014902899999999998,0.0010893,-0.0010893
2510,2.73498,0.017952,0.0010955,-0.0010955
2511,2.73598,0.0187699,0.0012789000000000001,-0.0012789000000000001
2512,2.73698,0.013627199999999999,0.0011074000000000001,-0.0011074000000000001
2513,2.73799,0.0166757,0.0009535,-0.0009535
2514,2.73899,0.0148689,0.0011988,-0.0011988
2515,2.73999,0.014818,0.0012,-0.0012
2516,2.74099,0.0152985,0.0012329,-0.0012329
2517,2.742,0.0178561,0.0012935,-0.0012935
2518,2.743,0.018677600000000003,0.0011429,-0.0011429
2519,2.744,0.0157798,0.0010643,-0.0010643
2520,2.745,0.0161343,0.0012274,-0.0012274
2521,2.74601,0.0130928,0.0011039,-0.0011039
2522,2.74701,0.0115231,0.0011131000000000001,-0.0011131000000000001
2523,2.74801,0.0167918,0.0011754,-0.0011754
2524,2.74902,0.015000500000000002,0.0011231,-0.0011231
2525,2.75002,0.014981800000000002,0.00127,-0.00127
2526,2.75102,0.0141846,0.0012835,-0.0012835
2527,2.75203,0.0152422,0.0012026,-0.0012026
2528,2.75303,0.0162867,0.0011505,-0.0011505
2529,2.75403,0.014273000000000001,0.0010476,-0.0010476
2530,2.75504,0.014825900000000001,0.0012537000000000002,-0.0012537000000000002
2531,2.75604,0.0152262,0.0012015,-0.0012015
2532,2.75705,0.0104492,0.0012337,-0.0012337
2533,2.75805,0.014351000000000001,0.0012454,-0.0012454
2534,2.75905,0.0125159,0.0011536,-0.0011536
2535,2.76006,0.0154518,0.0011325,-0.0011325
2536,2.76106,0.0139152,0.0011498,-0.0011498
2537,2.76207,0.0122845,0.0011645,-0.0011645
2538,2.76307,0.013216000000000002,0.001265,-0.001265
2539,2.76408,0.0145439,0.001226,-0.001226
2540,2.76508,0.0130267,0.0011633000000000001,-0.0011633000000000001
2541,2.76609,0.017240500000000002,0.0012232,-0.0012232
2542,2.76709,0.0160426,0.0011856,-0.0011856
2543,2.7681,0.0150407,0.001256,-0.001256
2544,2.7691,0.0149943,0.0012351,-0.0012351
2545,2.77011,0.0132178,0.0012308,-0.0012308
2546,2.77111,0.0158483,0.0011649,-0.0011649
2547,2.77212,0.0127602,0.0013174,-0.0013174
2548,2.77312,0.0141468,0.0012877,-0.0012877
2549,2.77413,0.0147585,0.0012428,-0.0012428
2550,2.77513,0.0162655,0.0012958,-0.0012958
2551,2.77614,0.018830700000000002,0.0012795999999999999,-0.0012795999999999999
2552,2.77714,0.0169839,0.0013123000000000002,-0.0013123000000000002
2553,2.77815,0.013936800000000001,0.0011452,-0.0011452
2554,2.77916,0.012003699999999999,0.0011853,-0.0011853
2555,2.78016,0.0144197,0.0013050999999999998,-0.0013050999999999998
2556,2.78117,0.0130222,0.0013276,-0.0013276
2557,2.78217,0.0169808,0.0012279,-0.0012279
2558,2.78318,0.0124034,0.0013356000000000002,-0.0013356000000000002
2559,2.78419,0.0137153,0.0012867999999999998,-0.0012867999999999998
2560,2.78519,0.0148077,0.0012735,-0.0012735
2561,2.7862,0.0141675,0.0012460000000000001,-0.0012460000000000001
2562,2.78721,0.0126311,0.0013003000000000001,-0.0013003000000000001
2563,2.78821,0.0130785,0.0012659000000000001,-0.0012659000000000001
2564,2.78922,0.0174812,0.0013253000000000002,-0.0013253000000000002
2565,2.79023,0.0163358,0.0012832,-0.0012832
2566,2.79123,0.0149326,0.0014353,-0.0014353
2567,2.79224,0.0181294,0.0014463000000000002,-0.0014463000000000002
2568,2.79325,0.012570900000000001,0.0012295000000000001,-0.0012295000000000001
2569,2.79425,0.016004400000000002,0.0014188999999999998,-0.0014188999999999998
2570,2.79526,0.0118171,0.0012652,-0.0012652
2571,2.79627,0.0136591,0.0012915,-0.0012915
2572,2.79728,0.0159211,0.0013947000000000002,-0.0013947000000000002
2573,2.79828,0.0152823,0.0014562,-0.0014562
2574,2.79929,0.0143991,0.0014641,-0.0014641
2575,2.8003,0.0165531,0.0013328,-0.0013328
2576,2.80131,0.0171707,0.0013988999999999998,-0.0013988999999999998
2577,2.80232,0.0163433,0.0012726999999999999,-0.0012726999999999999
2578,2.80332,0.0126396,0.001286,-0.001286
2579,2.80433,0.0184961,0.001197,-0.001197
2580,2.80534,0.0156974,0.0013411,-0.0013411
2581,2.80635,0.013536,0.0011602,-0.0011602
2582,2.80736,0.016275,0.0014138999999999998,-0.0014138999999999998
2583,2.80837,0.0142465,0.0012485,-0.0012485
2584,2.80937,0.015412300000000002,0.0013700000000000001,-0.0013700000000000001
2585,2.81038,0.0166822,0.0012694,-0.0012694
2586,2.81139,0.016962,0.0012953,-0.0012953
2587,2.8124,0.012594900000000001,0.0013716000000000002,-0.0013716000000000002
2588,2.81341,0.01658,0.0013211000000000002,-0.0013211000000000002
2589,2.81442,0.0153386,0.0014682,-0.0014682
2590,2.81543,0.0153101,0.0012640000000000001,-0.0012640000000000001
2591,2.81644,0.013827400000000002,0.0013935,-0.0013935
2592,2.81745,0.0158659,0.0013602,-0.0013602
2593,2.81846,0.013685000000000001,0.0012733,-0.0012733
2594,2.81947,0.0161025,0.0012246,-0.0012246
2595,2.82048,0.0167239,0.0014285,-0.0014285
2596,2.82149,0.0145486,0.0013985,-0.0013985
2597,2.8225,0.0142716,0.0013897999999999998,-0.0013897999999999998
2598,2.82351,0.0150213,0.0013070000000000002,-0.0013070000000000002
2599,2.82452,0.0147247,0.0013513,-0.0013513
2600,2.82553,0.0174068,0.0014448,-0.0014448
2601,2.82654,0.014098200000000002,0.0013863,-0.0013863
2602,2.82755,0.015610299999999999,0.0012931000000000002,-0.0012931000000000002
2603,2.82856,0.0127807,0.0013137,-0.0013137
